# Averages = 100
# wavelength [µm]	intensity
446.8250 14.33578
447.0374 36746.70328
447.2498 1227.14287
447.4621 1226.22129
447.6745 1231.17737
447.8868 1241.29434
448.0992 1245.86131
448.3115 1239.71740
448.5238 1249.93677
448.7360 1243.66998
448.9483 1248.64655
449.1606 1243.58806
449.3728 1262.40890
449.5850 1233.73733
449.7972 1242.70744
450.0094 1236.50209
450.2216 1252.37385
450.4337 1251.94378
450.6459 1673.70246
450.8580 2000.74259
451.0701 2025.95309
451.2822 2053.60066
451.4943 2043.31986
451.7064 2031.17541
451.9184 2011.47395
452.1305 2078.70876
452.3425 2189.97490
452.5545 2121.42939
452.7665 2108.32239
452.9785 2224.97469
453.1905 2236.77099
453.4024 2182.54078
453.6143 2270.17336
453.8263 2269.16985
454.0382 2368.98785
454.2501 2225.15901
454.4619 2213.71086
454.6738 2349.73695
454.8856 2414.69851
455.0975 2270.03000
455.3093 2273.16339
455.5211 2350.80189
455.7329 2310.88698
455.9446 2350.18750
456.1564 2348.99968
456.3681 2403.65996
456.5798 2469.19496
456.7916 2414.43228
457.0033 2412.42527
457.2149 2365.64966
457.4266 2402.36974
457.6382 2464.42320
457.8499 2422.66511
458.0615 2531.39177
458.2731 2451.25476
458.4847 2538.88734
458.6963 2552.71113
458.9078 2582.14044
459.1194 2722.93829
459.3309 2750.27867
459.5424 2597.33637
459.7539 2500.73368
459.9654 2550.27405
460.1769 2611.52879
460.3883 2608.41588
460.5998 2463.39921
460.8112 2457.05051
461.0226 2517.48607
461.2340 2630.94353
461.4454 2569.36111
461.6567 2520.55802
461.8681 2506.52943
462.0794 2472.04164
462.2907 2593.30187
462.5020 2660.84388
462.7133 2750.68827
462.9246 2817.67733
463.1359 2662.27746
463.3471 2428.97286
463.5583 2498.64475
463.7696 2809.91552
463.9808 2691.13334
464.1919 2577.12292
464.4031 2587.79283
464.6143 2735.34898
464.8254 2582.55003
465.0365 2543.78198
465.2476 2648.39223
465.4587 2702.49956
465.6698 2544.51925
465.8809 2522.54455
466.0919 2537.57664
466.3030 2692.79219
466.5140 2660.12709
466.7250 2557.74913
466.9360 2607.84245
467.1469 2544.27350
467.3579 2461.43316
467.5688 2455.53501
467.7798 2559.48990
467.9907 2741.18569
468.2016 2553.28456
468.4125 2541.28346
468.6233 2437.94296
468.8342 2449.88262
469.0450 2704.62945
469.2559 2711.16247
469.4667 2681.01637
469.6775 2488.32299
469.8882 2521.50008
470.0990 2559.01887
470.3098 2706.63646
470.5205 2589.04209
470.7312 2715.11505
470.9419 2817.37013
471.1526 2652.40625
471.3633 2528.97517
471.5739 2596.18950
471.7846 2554.45190
471.9952 2401.89871
472.2058 2464.97615
472.4164 2447.44553
472.6270 2495.16321
472.8376 2538.64158
473.0481 2676.01933
473.2587 2714.58258
473.4692 2651.25938
473.6797 2594.89928
473.8902 2527.62351
474.1007 2451.54147
474.3111 2421.98928
474.5216 2385.98599
474.7320 2496.55583
474.9424 2622.75166
475.1528 2689.63832
475.3632 2514.25028
475.5736 2520.33274
475.7840 2473.24994
475.9943 2493.75011
476.2046 2530.79786
476.4149 2549.02478
476.6252 2636.65737
476.8355 2757.22129
477.0458 2780.32237
477.2561 2811.34910
477.4663 2703.31875
477.6765 2643.57950
477.8867 2580.11295
478.0969 2616.89447
478.3071 2622.09631
478.5173 2579.70336
478.7274 2653.75791
478.9375 2796.13269
479.1477 2795.27255
479.3578 2781.05964
479.5679 2873.56639
479.7779 2739.71115
479.9880 2691.89108
480.1980 2760.84619
480.4081 2834.08155
480.6181 2753.06391
480.8281 2667.21306
481.0381 2786.28196
481.2480 2823.78027
481.4580 2752.20376
481.6679 2757.77424
481.8778 2703.52355
482.0877 2772.17146
482.2976 2796.62421
482.5075 2847.51623
482.7174 2820.81072
482.9272 2809.60833
483.1371 2763.79527
483.3469 2790.95133
483.5567 2866.68522
483.7665 2884.35919
483.9762 2883.84720
484.1860 2854.74556
484.3957 2896.29885
484.6055 2840.61458
484.8152 2872.99296
485.0249 2912.98979
485.2346 2895.95069
485.4442 2917.76156
485.6539 2977.62368
485.8635 2971.54122
486.0732 2908.62762
486.2828 2942.56246
486.4924 2945.24530
486.7019 2929.25066
486.9115 2962.73495
487.1210 2997.91905
487.3306 3014.11849
487.5401 3043.79355
487.7496 3062.69631
487.9591 3134.43665
488.1686 3119.95751
488.3780 3066.07545
488.5875 3094.56270
488.7969 3106.48188
489.0063 3100.89092
489.2157 3149.22299
489.4251 3144.47170
489.6345 3153.58516
489.8438 3154.79346
490.0531 3153.35988
490.2625 3180.80266
490.4718 3155.69457
490.6811 3206.11556
490.8903 3251.04799
491.0996 3254.98009
491.3089 3246.41958
491.5181 3285.16715
491.7273 3303.25072
491.9365 3294.03486
492.1457 3347.22060
492.3549 3335.52670
492.5640 3334.29792
492.7732 3369.31819
492.9823 3373.96708
493.1914 3448.94321
493.4005 3440.93565
493.6096 3408.53679
493.8187 3416.93346
494.0277 3475.99688
494.2368 3475.23913
494.4458 3510.07508
494.6548 3551.36213
494.8638 3581.22151
495.0728 3536.67819
495.2817 3579.58314
495.4907 3563.64994
495.6996 3618.86318
495.9085 3624.84325
496.1174 3654.66167
496.3263 3662.83307
496.5352 3698.11957
496.7440 3702.01071
496.9529 3736.15035
497.1617 3759.21048
497.3705 3751.91971
497.5793 3821.98072
497.7881 3786.69422
497.9969 3849.75118
498.2056 3854.05191
498.4144 3878.54562
498.6231 3912.66478
498.8318 3918.64485
499.0405 3964.90846
499.2492 3900.88896
499.4578 3987.94811
499.6665 3987.39516
499.8751 4060.38476
500.0837 4079.02128
500.2923 4092.96795
500.5009 4071.68955
500.7095 4145.15019
500.9180 4157.23320
501.1266 4200.32247
501.3351 4219.98297
501.5436 4267.49584
501.7521 4255.74050
501.9606 4312.98123
502.1691 4304.80983
502.3775 4331.14671
502.5860 4360.88322
502.7944 4386.72858
503.0028 4454.96690
503.2112 4480.09548
503.4196 4464.40804
503.6279 4557.01718
503.8363 4493.44823
504.0446 4613.74592
504.2529 4625.58318
504.4612 4669.57355
504.6695 4682.02520
504.8778 4695.27555
505.0860 4737.01316
505.2943 4742.17404
505.5025 4821.12323
505.7107 4821.96290
505.9189 4900.70730
506.1271 4923.86983
506.3353 4944.08328
506.5434 4930.09565
506.7516 5014.69724
506.9597 5018.93654
507.1678 5052.93282
507.3759 5096.80031
507.5840 5094.93666
507.7920 5147.52849
508.0001 5148.02001
508.2081 5274.01104
508.4161 5238.45831
508.6241 5296.12911
508.8321 5298.48427
509.0401 5366.57923
509.2480 5403.17643
509.4560 5400.88271
509.6639 5471.72195
509.8718 5507.06989
510.0797 5532.60806
510.2876 5524.02707
510.4955 5697.10091
510.7033 5705.35422
510.9112 5768.43166
511.1190 5771.58553
511.3268 5743.28260
511.5346 5838.92274
511.7424 5855.24505
511.9501 5942.69332
512.1579 5977.01728
512.3656 6008.69935
512.5733 6007.57297
512.7810 6118.69575
512.9887 6170.79608
513.1964 6212.22649
513.4040 6219.72205
513.6117 6266.86629
513.8193 6316.14042
514.0269 6350.71013
514.2345 6446.24788
514.4421 6435.12741
514.6497 6505.27034
514.8572 6563.55553
515.0647 6587.59868
515.2723 6667.89953
515.4798 6686.49509
515.6873 6759.38230
515.8947 6759.44374
516.1022 6799.27673
516.3097 6852.91303
516.5171 6958.40390
516.7245 6959.44837
516.9319 7024.12322
517.1393 7074.23701
517.3467 7146.75559
517.5540 7164.83915
517.7614 7246.12303
517.9687 7205.77805
518.1760 7291.48554
518.3833 7363.61500
518.5906 7385.77402
518.7978 7526.79715
519.0051 7486.34977
519.2123 7636.71163
519.4196 7563.74250
519.6268 7671.03559
519.8340 7715.80418
520.0411 7808.45429
520.2483 7876.93837
520.4554 7900.81768
520.6626 7980.91374
520.8697 8018.39157
521.0768 8148.66286
521.2839 8165.21045
521.4909 8234.82090
521.6980 8383.58535
521.9050 8413.19898
522.1121 8469.86628
522.3191 8525.93966
522.5261 8570.25771
522.7331 8669.27700
522.9400 8814.33462
523.1470 8816.03444
523.3539 8878.86612
523.5608 8915.64764
523.7677 8974.24002
523.9746 9035.94532
524.1815 9124.17181
524.3884 9204.34979
524.5952 9155.30094
524.8020 9349.18214
525.0089 9287.00581
525.2157 9387.78635
525.4225 9467.86193
525.6292 9501.85821
525.8360 9565.09949
526.0427 9692.48314
526.2494 9751.38272
526.4562 9827.34188
526.6629 9823.88082
526.8695 9880.36380
527.0762 10050.67288
527.2829 10055.28081
527.4895 10256.78045
527.6961 10314.30789
527.9027 10398.92996
528.1093 10370.87279
528.3159 10452.60722
528.5224 10501.61512
528.7290 10720.23578
528.9355 10667.54154
529.1420 10890.99541
529.3485 10798.24291
529.5550 10996.24053
529.7615 10949.93595
529.9680 11130.58728
530.1744 11171.54665
530.3808 11244.27002
530.5872 11219.18241
530.7936 11350.12953
531.0000 11426.80548
531.2064 11495.71963
531.4127 11554.74209
531.6191 11660.58111
531.8254 11662.23997
532.0317 11793.28949
532.2380 11781.22695
532.4443 11986.61774
532.6505 11821.05994
532.8568 12060.22173
533.0630 12239.95147
533.2692 12203.10851
533.4754 12292.83002
533.6816 12503.48409
533.8878 12437.72381
534.0939 12646.65758
534.3001 12628.88122
534.5062 12692.06105
534.7123 12766.17704
534.9184 12775.86393
535.1245 12810.45412
535.3306 12885.04115
535.5366 13021.76354
535.7426 13169.70880
535.9487 13310.60905
536.1547 13193.21948
536.3607 13313.57861
536.5666 13304.87474
536.7726 13395.88647
536.9785 13513.91091
537.1845 13693.23105
537.3904 13601.07246
537.5963 13794.40071
537.8022 13815.45383
538.0080 13953.87604
538.2139 13993.87287
538.4197 14151.38214
538.6256 14124.45135
538.8314 14232.76842
539.0372 14239.54720
539.2430 14438.01585
539.4487 14217.26530
539.6545 14558.21114
539.8602 14469.08354
540.0659 14577.31868
540.2716 14837.10352
540.4773 14801.93990
540.6830 15064.71477
540.8887 15041.28600
541.0943 14969.09511
541.2999 14999.09785
541.5056 15017.36573
541.7112 15138.42116
541.9167 15093.30441
542.1223 15286.53026
542.3279 15302.81161
542.5334 15355.11674
542.7389 15608.65527
542.9444 15661.47238
543.1499 15739.17232
543.3554 15636.58956
543.5609 15833.44032
543.7663 15952.09963
543.9718 15805.83370
544.1772 16011.38832
544.3826 15979.91104
544.5880 16243.56654
544.7934 16266.29899
544.9987 16276.90747
545.2041 16560.75594
545.4094 16370.88876
545.6147 16470.64531
545.8200 16658.77172
546.0253 16643.51436
546.2306 16761.55927
546.4358 16670.09699
546.6411 16847.81972
546.8463 16858.36676
547.0515 17084.79018
547.2567 17081.04240
547.4619 17159.86872
547.6670 17271.36014
547.8722 17254.21864
548.0773 17545.93131
548.2824 17395.89712
548.4876 17359.29991
548.6926 17561.43443
548.8977 17697.15332
549.1028 17832.50357
549.3078 17806.10526
549.5129 17836.29232
549.7179 17845.01666
549.9229 17916.98228
550.1279 17871.59930
550.3328 17931.33855
550.5378 17774.75085
550.7427 17964.92523
550.9476 18012.15139
551.1526 17741.43040
551.3575 18052.72165
551.5623 18002.85361
551.7672 17904.87879
551.9720 18062.53142
552.1769 18018.07002
552.3817 18198.68039
552.5865 17981.86193
552.7913 18070.78474
552.9961 17969.55364
553.2008 18059.31611
553.4056 18240.04935
553.6103 18168.43189
553.8150 18361.28910
554.0197 18376.99702
554.2244 18229.58423
554.4291 18142.48412
554.6337 18348.57122
554.8384 18314.22678
555.0430 18243.73570
555.2476 18127.65683
555.4522 18033.45027
555.6568 18134.78376
555.8613 18164.64315
556.0659 18287.05024
556.2704 18036.31742
556.4750 18216.12908
556.6795 18182.31712
556.8839 18023.80433
557.0884 18172.50735
557.2929 18148.68947
557.4973 18037.71004
557.7018 17993.96543
557.9062 17978.89238
558.1106 17945.18281
558.3150 17851.61112
558.5193 17967.85383
558.7237 17913.62362
558.9280 17777.94569
559.1323 17688.30609
559.3367 17647.40816
559.5410 17657.97568
559.7452 17382.66724
559.9495 17622.30006
560.1537 17563.97391
560.3580 17458.72880
560.5622 17588.89769
560.7664 17615.48033
560.9706 17445.92899
561.1748 17515.45753
561.3789 17513.98299
561.5831 17409.98714
561.7872 17357.08811
561.9913 17368.41338
562.1954 17238.75647
562.3995 17293.62156
562.6036 17173.03716
562.8076 17001.49929
563.0117 17160.29879
563.2157 17065.45736
563.4197 17078.05237
563.6237 17002.99431
563.8277 16793.22087
564.0316 16633.21307
564.2356 16721.99252
564.4395 16673.33278
564.6434 16595.65333
564.8473 16699.46486
565.0512 16561.53417
565.2551 16515.49583
565.4590 16541.36168
565.6628 16473.75823
565.8666 16473.53295
566.0705 16343.79413
566.2743 16204.06122
566.4780 16119.11148
566.6818 16081.03974
566.8856 16145.83747
567.0893 15932.17289
567.2930 15854.24768
567.4967 15698.31534
567.7004 15768.39683
567.9041 15800.65234
568.1078 15664.03234
568.3114 15596.89993
568.5151 15563.21084
568.7187 15174.32205
568.9223 15343.21804
569.1259 15278.95278
569.3295 15360.35954
569.5330 15242.80613
569.7366 15126.35863
569.9401 15110.69167
570.1436 15015.05152
570.3471 15116.42598
570.5506 14986.13421
570.7541 14841.01514
570.9575 14850.10812
571.1609 14641.72730
571.3644 14681.82653
571.5678 14580.61591
571.7712 14567.71371
571.9746 14432.75257
572.1779 14240.57118
572.3813 14115.27645
572.5846 14222.99961
572.7879 14078.22870
572.9912 14169.56811
573.1945 14015.54038
573.3978 13853.15693
573.6010 13806.89332
573.8043 13884.85949
574.0075 13547.88671
574.2107 13542.78727
574.4139 13354.39462
574.6171 13337.92896
574.8203 13026.74010
575.0234 13067.57660
575.2266 12831.83492
575.4297 12783.70765
575.6328 12729.78464
575.8359 12648.19356
576.0390 12308.02595
576.2420 12270.28189
576.4451 12021.84280
576.6481 12043.20311
576.8512 12148.07959
577.0542 11797.09871
577.2571 11832.15993
577.4601 11697.50599
577.6631 11499.79508
577.8660 11402.88520
578.0689 11177.67008
578.2719 11157.27231
578.4748 11085.26573
578.6776 10886.36700
578.8805 10814.77002
579.0834 10634.20061
579.2862 10643.78511
579.4890 10621.89232
579.6918 10553.06009
579.8946 10283.97748
580.0974 10283.54740
580.3002 10116.92467
580.5029 9911.84108
580.7057 9957.28550
580.9084 9736.73975
581.1111 9756.27737
581.3138 9563.66591
581.5164 9457.99072
581.7191 9332.36832
581.9217 9263.61801
582.1244 9114.93548
582.3270 9015.64995
582.5296 9006.72081
582.7322 8935.20574
582.9347 8847.02020
583.1373 8688.75318
583.3398 8636.52997
583.5424 8533.23043
583.7449 8449.09987
583.9474 8347.95070
584.1498 8218.39620
584.3523 8212.68236
584.5548 8066.55979
584.7572 8010.54785
584.9596 7971.10397
585.1620 7955.15029
585.3644 7772.14380
585.5668 7704.43796
585.7691 7679.32986
585.9715 7566.93734
586.1738 7538.34769
586.3761 7417.29226
586.5784 7431.58708
586.7807 7368.22293
586.9830 7291.62890
587.1852 7195.27197
587.3875 7111.38717
587.5897 7101.53644
587.7919 7005.09759
587.9941 6917.01445
588.1963 6877.42722
588.3984 6794.85312
588.6006 6708.96131
588.8027 6746.60297
589.0048 6660.24013
589.2069 6629.76636
589.4090 6603.83907
589.6111 6569.57655
589.8131 6517.68103
590.0152 6508.26037
590.2172 6356.21917
590.4192 6406.14865
590.6212 6329.24742
590.8232 6225.70212
591.0252 6266.66150
591.2271 6225.25157
591.4291 6232.95193
591.6310 6158.83594
591.8329 6098.89190
592.0348 6083.94173
592.2367 6055.41352
592.4385 6060.67680
592.6404 6085.60058
592.8422 6009.39566
593.0440 6024.79639
593.2458 6045.39895
593.4476 5995.77667
593.6494 5992.33608
593.8512 6002.80120
594.0529 5970.70953
594.2546 5968.53869
594.4563 5928.11178
594.6580 5904.90830
594.8597 5874.53692
595.0614 5893.76735
595.2630 5902.81937
595.4647 5897.78137
595.6663 5842.58861
595.8679 5882.01201
596.0695 5930.77414
596.2711 5891.80130
596.4727 5897.59705
596.6742 5935.36159
596.8757 5916.68412
597.0773 5946.33870
597.2788 5914.24703
597.4802 5942.73428
597.6817 5980.45786
597.8832 5963.37780
598.0846 5975.87041
598.2860 5969.91082
598.4875 5942.18133
598.6889 6013.45064
598.8902 6055.14728
599.0916 6085.64154
599.2930 6046.93493
599.4943 6107.00185
599.6956 6134.40367
599.8969 6167.94940
600.0982 6169.28058
600.2995 6166.65918
600.5008 6280.79248
600.7020 6251.77276
600.9032 6296.62328
601.1045 6354.76511
601.3057 6334.28543
601.5068 6428.22575
601.7080 6454.41927
601.9092 6455.13606
602.1103 6564.16992
602.3115 6605.88704
602.5126 6638.79790
602.7137 6657.51633
602.9147 6685.40967
603.1158 6792.86659
603.3169 6852.44200
603.5179 6927.70485
603.7189 6931.43215
603.9199 7015.39887
604.1209 7018.10219
604.3219 7101.33164
604.5229 7175.26331
604.7238 7221.21973
604.9247 7297.89568
605.1257 7353.21132
605.3266 7432.09907
605.5275 7455.83503
605.7283 7519.81357
605.9292 7659.85368
606.1300 7600.33971
606.3309 7699.91195
606.5317 7809.99027
606.7325 7930.67707
606.9332 7977.90323
607.1340 8054.70205
607.3348 8113.11012
607.5355 8160.21340
607.7362 8305.66014
607.9369 8310.34999
608.1376 8457.10743
608.3383 8530.01512
608.5390 8656.35431
608.7396 8702.74080
608.9402 8835.06007
609.1409 8918.90391
609.3415 8906.92329
609.5421 9017.88224
609.7426 9129.74229
609.9432 9180.08136
610.1437 9210.65753
610.3443 9498.92962
610.5448 9540.07331
610.7453 9636.08208
610.9457 9658.30254
611.1462 9771.47330
611.3467 9844.36050
611.5471 10033.16274
611.7475 10026.48637
611.9479 10245.63950
612.1483 10172.15838
612.3487 10461.92548
612.5491 10429.38326
612.7494 10792.67243
612.9497 10700.39096
613.1501 10862.95872
613.3504 10953.29462
613.5506 11219.48960
613.7509 11219.01857
613.9512 11230.30288
614.1514 11356.08912
614.3516 11587.91918
614.5519 11594.04261
614.7521 11797.34446
614.9522 11837.62801
615.1524 11919.38292
615.3526 12141.85377
615.5527 12387.36426
615.7528 12349.88643
615.9529 12480.46492
616.1530 12668.34557
616.3531 12913.48743
616.5532 13054.83824
616.7532 13002.71743
616.9532 13143.96584
617.1533 13155.29110
617.3533 13338.35903
617.5532 13405.57336
617.7532 13558.06512
617.9532 13600.15087
618.1531 13936.40686
618.3530 13816.88741
618.5530 14056.66359
618.7528 14231.68300
618.9527 14369.32698
619.1526 14421.79594
619.3524 14484.38186
619.5523 14634.43653
619.7521 14762.10690
619.9519 14981.64915
620.1517 15121.27966
620.3515 15314.56695
620.5512 15413.46337
620.7510 15481.64025
620.9507 15542.85403
621.1504 15601.83553
621.3501 15808.70085
621.5498 16077.92683
621.7495 16163.28616
621.9492 16333.73860
622.1488 16273.79456
622.3484 16467.55288
622.5480 16510.74454
622.7476 16970.82072
622.9472 16790.90667
623.1468 16884.35548
623.3463 17471.13949
623.5459 17556.43739
623.7454 17544.92780
623.9449 17716.56806
624.1444 17858.92237
624.3439 18067.56943
624.5433 18080.75835
624.7428 18239.12777
624.9422 18237.32556
625.1416 18372.32766
625.3410 18425.75916
625.5404 18720.21611
625.7398 18778.74705
625.9391 18984.11736
626.1385 18858.14680
626.3378 19053.03151
626.5371 19499.46822
626.7364 19272.38944
626.9357 19473.88909
627.1350 19602.17385
627.3342 19739.20344
627.5335 19749.50472
627.7327 19981.76486
627.9319 20079.82160
628.1311 20626.48590
628.3303 20387.18075
628.5294 20473.52311
628.7286 20751.84207
628.9277 21053.09827
629.1268 21108.39343
629.3259 21364.10280
629.5250 21484.50289
629.7241 21574.14248
629.9231 21255.56046
630.1222 21789.28160
630.3212 21921.17078
630.5202 21813.75482
630.7192 22098.58632
630.9182 22044.78618
631.1171 22194.67701
631.3161 22277.02583
631.5150 22177.08496
631.7140 22456.57125
631.9129 22747.25994
632.1118 22899.38306
632.3106 22971.45108
632.5095 23175.67452
632.7083 23019.51690
632.9072 23218.55899
633.1060 23385.46844
633.3048 23165.29132
633.5036 23388.76567
633.7023 23602.61457
633.9011 24020.62547
634.0998 24275.47470
634.2986 24117.63775
634.4973 24447.34024
634.6960 24323.49957
634.8947 24460.85683
635.0933 24570.05452
635.2920 24665.57179
635.4906 24559.93756
635.6892 24904.69262
635.8878 25118.88967
636.0864 25351.74372
636.2850 25113.46255
636.4836 25259.29841
636.6821 25269.51777
636.8806 25595.16528
637.0792 25763.05776
637.2777 25796.54205
637.4761 25795.76382
637.6746 25924.74489
637.8731 26395.14284
638.0715 26202.75665
638.2699 26471.16344
638.4683 26431.02325
638.6667 26363.19452
638.8651 26594.08252
639.0635 26760.39806
639.2618 26806.64120
639.4602 26972.60858
639.6585 26849.23895
639.8568 27223.48476
640.0551 27174.10823
640.2534 27141.60697
640.4516 27430.53440
640.6499 27486.89450
640.8481 27887.80486
641.0463 27957.96827
641.2445 28266.12613
641.4427 28002.22487
641.6409 28137.18601
641.8390 28214.10772
642.0372 28451.24202
642.2353 28403.23763
642.4334 28418.86364
642.6315 28608.60794
642.8296 28569.32790
643.0277 28455.56324
643.2257 29168.85027
643.4237 29106.61250
643.6218 28962.64030
643.8198 29131.65916
644.0178 29302.19352
644.2157 29139.99439
644.4137 29272.47749
644.6116 30067.96999
644.8096 30254.82666
645.0075 29647.84968
645.2054 30023.32427
645.4033 29906.07806
645.6011 29900.87622
645.7990 29925.08321
645.9968 30276.71945
646.1947 30355.38193
646.3925 30622.31417
646.5903 30340.24744
