# Averages = 100
# wavelength [µm]	intensity
446.8250 14.33578
447.0374 36746.70328
447.2498 1231.25929
447.4621 1219.66779
447.6745 1232.01704
447.8868 1243.34231
448.0992 1243.13751
448.3115 1237.97663
448.5238 1245.24692
448.7360 1240.00412
448.9483 1248.48271
449.1606 1234.72036
449.3728 1266.34100
449.5850 1233.75781
449.7972 1242.29784
450.0094 1240.06556
450.2216 1253.72551
450.4337 1253.74599
450.6459 1665.44915
450.8580 1987.55367
451.0701 2012.92800
451.2822 2038.50713
451.4943 2018.21176
451.7064 1995.62267
451.9184 1992.98079
452.1305 2065.80656
452.3425 2161.34430
452.5545 2091.75432
452.7665 2089.70635
452.9785 2207.68983
453.1905 2233.82191
453.4024 2158.02659
453.6143 2249.44792
453.8263 2234.00623
454.0382 2334.76629
454.2501 2214.50957
454.4619 2204.08541
454.6738 2327.61888
454.8856 2391.80222
455.0975 2244.73759
455.3093 2246.84700
455.5211 2321.43402
455.7329 2289.21947
455.9446 2321.16778
456.1564 2333.98807
456.3681 2380.76367
456.5798 2446.13483
456.7916 2382.75020
457.0033 2385.10537
457.2149 2343.90023
457.4266 2369.17217
457.6382 2421.76401
457.8499 2397.55702
458.0615 2507.47150
458.2731 2428.97286
458.4847 2502.80213
458.6963 2527.82831
458.9078 2554.92293
459.1194 2683.39201
459.3309 2703.72834
459.5424 2557.76961
459.7539 2478.20602
459.9654 2531.51465
460.1769 2575.17735
460.3883 2575.07495
460.5998 2441.54738
460.8112 2417.62711
461.0226 2493.68867
461.2340 2593.60906
461.4454 2546.26003
461.6567 2480.68407
461.8681 2479.72152
462.0794 2446.70827
462.2907 2545.76851
462.5020 2621.11328
462.7133 2717.77741
462.9246 2786.09765
463.1359 2625.84409
463.3471 2403.51660
463.5583 2464.07504
463.7696 2782.18603
463.9808 2653.22543
464.1919 2548.02128
464.4031 2564.01592
464.6143 2692.52595
464.8254 2532.14952
465.0365 2515.27426
465.2476 2614.06827
465.4587 2659.51270
465.6698 2514.63939
465.8809 2487.52428
466.0919 2508.22925
466.3030 2662.87137
466.5140 2619.78210
466.7250 2524.57204
466.9360 2570.15982
467.1469 2535.16004
467.3579 2432.14721
467.5688 2423.21806
467.7798 2515.15138
467.9907 2689.53592
468.2016 2517.44511
468.4125 2500.28313
468.6233 2415.27195
468.8342 2413.71549
469.0450 2680.52486
469.2559 2666.70107
469.4667 2642.41216
469.6775 2447.28170
469.8882 2471.22245
470.0990 2523.24086
470.3098 2659.88133
470.5205 2543.43383
470.7312 2671.67763
470.9419 2761.84970
471.1526 2614.04779
471.3633 2490.71911
471.5739 2550.33548
471.7846 2519.63643
471.9952 2373.26811
472.2058 2432.70016
472.4164 2414.61660
472.6270 2457.95161
472.8376 2490.26856
473.0481 2621.97343
473.2587 2668.56472
473.4692 2617.85701
473.6797 2545.21556
473.8902 2487.07373
474.1007 2402.67694
474.3111 2387.27621
474.5216 2350.22846
474.7320 2450.88612
474.9424 2580.95262
475.1528 2638.27526
475.3632 2470.19847
475.5736 2482.32244
475.7840 2427.21160
475.9943 2448.01897
476.2046 2484.26801
476.4149 2493.97538
476.6252 2579.25280
476.8355 2713.18996
477.0458 2721.87335
477.2561 2764.65541
477.4663 2643.04703
477.6765 2590.02512
477.8867 2552.48585
478.0969 2563.44248
478.3071 2573.57993
478.5173 2534.52517
478.7274 2604.79097
478.9375 2745.09731
479.1477 2733.05526
479.3578 2730.16762
479.5679 2814.66681
479.7779 2682.14275
479.9880 2641.08098
480.1980 2713.76339
480.4081 2784.70503
480.6181 2712.82132
480.8281 2612.24558
481.0381 2737.80654
481.2480 2778.56112
481.4580 2699.79624
481.6679 2701.80325
481.8778 2642.82175
482.0877 2705.32576
482.2976 2750.09436
482.5075 2791.56572
482.7174 2755.82867
482.9272 2762.13641
483.1371 2702.80676
483.3469 2728.50877
483.5567 2808.87106
483.7665 2830.84576
483.9762 2824.27178
484.1860 2798.52882
484.3957 2840.75793
484.6055 2773.03161
484.8152 2822.18286
485.0249 2855.58523
485.2346 2829.18691
485.4442 2847.51623
485.6539 2913.25603
485.8635 2915.59071
486.0732 2842.70350
486.2828 2876.24923
486.4924 2879.54646
486.7019 2866.19370
486.9115 2896.44220
487.1210 2929.16874
487.3306 2939.79770
487.5401 2981.86298
487.7496 2978.95486
487.9591 3043.50684
488.1686 3043.26108
488.3780 2997.36610
488.5875 3018.07107
488.7969 3029.56017
489.0063 3024.64505
489.2157 3063.00350
489.4251 3050.87953
489.6345 3082.27489
489.8438 3079.03910
490.0531 3069.45460
490.2625 3098.67912
490.4718 3072.03504
490.6811 3118.58537
490.8903 3164.86947
491.0996 3181.94953
491.3089 3168.41245
491.5181 3192.84472
491.7273 3198.76335
491.9365 3203.53512
492.1457 3246.27623
492.3549 3239.06738
492.5640 3235.97494
492.7732 3284.53228
492.9823 3288.34150
493.1914 3335.21951
493.4005 3342.42836
493.6096 3320.92469
493.8187 3314.14591
494.0277 3389.16300
494.2368 3384.00212
494.4458 3400.22204
494.6548 3449.20945
494.8638 3480.07234
495.0728 3433.35817
495.2817 3471.77806
495.4907 3449.39377
495.6996 3512.90128
495.9085 3516.46474
496.1174 3552.11988
496.3263 3536.26860
496.5352 3588.79900
496.7440 3578.12908
496.9529 3615.09492
497.1617 3640.40781
497.3705 3627.52609
497.5793 3681.83822
497.7881 3653.12570
497.9969 3709.56772
498.2056 3736.29371
498.4144 3743.40016
498.6231 3773.05475
498.8318 3787.10381
499.0405 3819.70748
499.2492 3784.83057
499.4578 3851.67627
499.6665 3848.15376
499.8751 3907.17622
500.0837 3925.83322
500.2923 3939.08357
500.5009 3942.46272
500.7095 3998.84330
500.9180 3998.88426
501.1266 4056.14547
501.3351 4050.26780
501.5436 4095.11831
501.7521 4086.47588
501.9606 4131.06016
502.1691 4131.16256
502.3775 4159.79317
502.5860 4202.55475
502.7944 4208.28907
503.0028 4260.22555
503.2112 4301.41020
503.4196 4274.99141
503.6279 4371.26642
503.8363 4310.62606
504.0446 4416.17837
504.2529 4432.91028
504.4612 4463.75269
504.6695 4462.60583
504.8778 4479.93164
505.0860 4507.08771
505.2943 4524.33160
505.5025 4608.15496
505.7107 4586.40554
505.9189 4674.46819
506.1271 4681.55416
506.3353 4709.09934
506.5434 4700.62075
506.7516 4758.63971
506.9597 4772.19726
507.1678 4800.43875
507.3759 4854.85328
507.5840 4843.58945
507.7920 4875.96784
508.0001 4865.89183
508.2081 4988.87235
508.4161 4953.99545
508.6241 5015.45499
508.8321 5019.98100
509.0401 5068.04683
509.2480 5092.37670
509.4560 5089.71434
509.6639 5138.29215
509.8718 5197.90852
510.0797 5200.42753
510.2876 5197.47845
510.4955 5344.33829
510.7033 5357.85488
510.9112 5414.89081
511.1190 5420.03122
511.3268 5419.45778
511.5346 5480.40533
511.7424 5512.00549
511.9501 5578.03200
512.1579 5599.88383
512.3656 5633.06092
512.5733 5630.56240
512.7810 5736.81102
512.9887 5748.01341
513.1964 5809.49343
513.4040 5801.56779
513.6117 5856.10520
513.8193 5893.58303
514.0269 5900.56660
514.2345 5987.99439
514.4421 5998.62335
514.6497 6043.78106
514.8572 6094.03821
515.0647 6095.10315
515.2723 6184.39459
515.4798 6194.18388
515.6873 6286.67015
515.8947 6250.46206
516.1022 6280.73104
516.3097 6287.20262
516.5171 6411.88296
516.7245 6419.43997
516.9319 6456.09861
517.1393 6499.18787
517.3467 6558.68136
517.5540 6575.24943
517.7614 6629.02909
517.9687 6592.43189
518.1760 6656.30803
518.3833 6727.00391
518.5906 6733.96701
518.7978 6844.74164
519.0051 6813.48963
519.2123 6931.30927
519.4196 6864.11542
519.6268 6952.97678
519.8340 7005.83486
520.0411 7078.29199
520.2483 7128.13955
520.4554 7140.09969
520.6626 7211.40996
520.8697 7221.42453
521.0768 7323.12666
521.2839 7361.15744
521.4909 7383.54173
521.6980 7528.33313
521.9050 7547.56355
522.1121 7594.70779
522.3191 7619.38582
522.5261 7665.32175
522.7331 7717.72927
522.9400 7836.14283
523.1470 7832.21073
523.3539 7855.68045
523.5608 7899.69130
523.7677 7925.51618
523.9746 7982.53163
524.1815 8051.69154
524.3884 8108.01068
524.5952 8064.04079
524.8020 8212.88716
525.0089 8140.06139
525.2157 8220.15745
525.4225 8269.34966
525.6292 8290.56661
525.8360 8313.72914
526.0427 8392.08443
526.2494 8436.81206
526.4562 8510.82565
526.6629 8460.56850
526.8695 8530.77287
527.0762 8625.08183
527.2829 8617.54530
527.4895 8785.45826
527.6961 8824.67686
527.9027 8883.06445
528.1093 8873.64380
528.3159 8904.69100
528.5224 8932.17474
528.7290 9091.22000
528.9355 9021.07707
529.1420 9186.36863
529.3485 9084.54362
529.5550 9230.46139
529.7615 9198.16493
529.9680 9304.00395
530.1744 9345.86443
530.3808 9406.42287
530.5872 9335.39931
530.7936 9399.39833
531.0000 9459.19902
531.2064 9480.02686
531.4127 9512.81484
531.6191 9602.33156
531.8254 9585.70205
532.0317 9635.59057
532.2380 9626.04704
532.4443 9745.01354
532.6505 9610.76919
532.8568 9755.70394
533.0630 9863.11990
533.2692 9796.49948
533.4754 9860.86713
533.6816 9986.22330
533.8878 9919.82815
534.0939 10042.68580
534.3001 9978.23622
534.5062 10032.26164
534.7123 10048.42011
534.9184 10032.24116
535.1245 10042.84964
535.3306 10078.75053
535.5366 10131.93628
535.7426 10200.95282
535.9487 10294.68835
536.1547 10133.73849
536.3607 10201.36242
536.5666 10175.00506
536.7726 10218.29912
536.9785 10264.54225
537.1845 10354.46856
537.3904 10235.82973
537.5963 10356.08646
537.8022 10353.81321
538.0080 10414.82220
538.2139 10385.92536
538.4197 10458.38250
538.6256 10408.28918
538.8314 10449.04376
539.0372 10421.29378
539.2430 10551.89275
539.4487 10342.59034
539.6545 10534.28022
539.8602 10428.37975
540.0659 10488.22140
540.2716 10614.00764
540.4773 10523.11879
540.6830 10633.36095
540.8887 10593.36412
541.0943 10521.66473
541.2999 10460.57382
541.5056 10493.30036
541.7112 10490.96568
541.9167 10419.14341
542.1223 10506.14113
542.3279 10466.10334
542.5334 10449.37143
542.7389 10534.11638
542.9444 10542.86121
543.1499 10537.39313
543.3554 10433.15152
543.5609 10480.54152
543.7663 10527.84960
543.9718 10340.03038
544.1772 10429.58805
544.3826 10333.90695
544.5880 10470.19927
544.7934 10394.34251
544.9987 10376.68902
545.2041 10469.07289
545.4094 10302.59351
545.6147 10293.86917
545.8200 10327.00530
546.0253 10273.86051
546.2306 10289.95755
546.4358 10165.89160
546.6411 10239.12696
546.8463 10131.75196
547.0515 10207.15817
547.2567 10158.64179
547.4619 10128.35233
547.6670 10126.52964
547.8722 10073.87636
548.0773 10151.61726
548.2824 9981.61537
548.4876 9926.56597
548.6926 9978.44102
548.8977 9983.92958
549.1028 9972.25615
549.3078 9880.99867
549.5129 9815.91422
549.7179 9770.42883
549.9229 9723.67371
550.1279 9651.01178
550.3328 9633.21493
550.5378 9438.00255
550.7427 9483.50841
550.9476 9475.74661
551.1526 9255.18037
551.3575 9340.25300
551.5623 9223.53926
551.7672 9098.42885
551.9720 9069.34769
552.1769 9002.37911
552.3817 9020.95419
552.5865 8842.49419
552.7913 8818.67632
552.9961 8697.33417
553.2008 8658.87331
553.4056 8660.85984
553.6103 8546.35791
553.8150 8578.79774
554.0197 8522.08948
554.2244 8409.75840
554.4291 8278.83175
554.6337 8293.02418
554.8384 8223.78235
555.0430 8123.75956
555.2476 8006.02184
555.4522 7928.69054
555.6568 7904.05347
555.8613 7874.39888
556.0659 7872.82195
556.2704 7693.68612
556.4750 7684.73650
556.6795 7616.51866
556.8839 7472.46454
557.0884 7487.14847
557.2929 7418.82824
557.4973 7324.37592
557.7018 7256.73151
557.9062 7202.54226
558.1106 7144.37994
558.3150 7039.05291
558.5193 7030.82008
558.7237 6944.41628
558.9280 6861.84218
559.1323 6828.50124
559.3367 6743.85870
559.5410 6687.74435
559.7452 6548.17528
559.9495 6577.80939
560.1537 6500.76480
560.3580 6438.79327
560.5622 6439.26430
560.7664 6374.22082
560.9706 6286.87495
561.1748 6273.52219
561.3789 6240.05838
561.5831 6183.10437
561.7872 6144.11105
561.9913 6094.22253
562.1954 6040.62719
562.3995 6017.68994
562.6036 5970.13610
562.8076 5865.44394
563.0117 5882.44208
563.2157 5831.09950
563.4197 5810.45598
563.6237 5781.90729
563.8277 5706.86972
564.0316 5621.65374
564.2356 5631.40207
564.4395 5601.27645
564.6434 5597.05763
564.8473 5572.97352
565.0512 5530.13002
565.2551 5501.00790
565.4590 5497.99739
565.6628 5474.40479
565.8666 5455.99355
566.0705 5409.99617
566.2743 5376.14325
566.4780 5347.28737
566.6818 5331.31321
566.8856 5365.35045
567.0893 5334.32372
567.2930 5307.67965
567.4967 5291.27542
567.7004 5296.47726
567.9041 5333.72981
568.1078 5279.29480
568.3114 5296.00623
568.5151 5294.87985
568.7187 5218.34725
568.9223 5281.83428
569.1259 5275.81326
569.3295 5325.29218
569.5330 5324.92355
569.7366 5329.67483
569.9401 5365.86244
570.1436 5354.18902
570.3471 5424.49579
570.5506 5400.51407
570.7541 5408.41923
570.9575 5442.66127
571.1609 5414.52218
571.3644 5467.89225
571.5678 5523.51508
571.7712 5538.21949
571.9746 5559.06781
572.1779 5552.02280
572.3813 5556.50785
572.5846 5668.59318
572.7879 5665.84890
572.9912 5716.31085
573.1945 5766.44513
573.3978 5754.85363
573.6010 5800.91244
573.8043 5889.01606
574.0075 5863.84652
574.2107 5930.87654
574.4139 5947.09645
574.6171 6002.65785
574.8203 5987.27760
575.0234 6067.06646
575.2266 6068.11093
575.4297 6116.81162
575.6328 6170.85752
575.8359 6222.67113
576.0390 6157.56620
576.2420 6243.70377
576.4451 6259.37073
576.6481 6376.98557
576.8512 6512.43823
577.0542 6425.03092
577.2571 6575.43375
577.4601 6610.86360
577.6631 6611.62135
577.8660 6658.23312
578.0689 6615.77873
578.2719 6706.29895
578.4748 6801.34518
578.6776 6809.88521
578.8805 6860.96155
579.0834 6881.15452
579.2862 7016.36142
579.4890 7087.71265
579.6918 7225.68430
579.8946 7174.85372
580.0974 7309.95822
580.3002 7339.01889
580.5029 7320.32094
580.7057 7445.45183
580.9084 7412.74577
581.1111 7569.31298
581.3138 7606.09450
581.5164 7618.30039
581.7191 7675.21344
581.9217 7733.76487
582.1244 7773.78218
582.3270 7836.47050
582.5296 7948.92447
582.7322 8027.89414
582.9347 8093.51106
583.1373 8071.57732
583.3398 8170.35085
583.5424 8210.20432
583.7449 8290.13654
583.9474 8313.81106
584.1498 8347.37727
584.3523 8514.12288
584.5548 8517.03100
584.7572 8609.12815
584.9596 8698.60391
585.1620 8828.56800
585.3644 8775.91473
585.5668 8880.05394
585.7691 8958.83930
585.9715 8987.32654
586.1738 9133.06000
586.3761 9163.47233
586.5784 9343.46831
586.7807 9379.36920
586.9830 9474.76358
587.1852 9494.54696
587.3875 9532.14767
587.5897 9722.75212
587.7919 9763.07662
587.9941 9744.87018
588.1963 9804.09744
588.3984 9887.65456
588.6006 9865.70034
588.8027 10108.83519
589.0048 10113.56600
589.2069 10215.65724
589.4090 10334.58278
589.6111 10428.80983
589.8131 10533.72727
590.0152 10680.46423
590.2172 10624.18605
590.4192 10841.76225
590.6212 10817.28902
590.8232 10823.76060
591.0252 11020.75471
591.2271 11118.66810
591.4291 11235.19752
591.6310 11281.72737
591.8329 11345.82879
592.0348 11479.95027
592.2367 11560.84503
592.4385 11776.68046
592.6404 11939.86261
592.8422 12065.68981
593.0440 12197.92715
593.2458 12333.44124
593.4476 12404.32144
593.6494 12489.20975
593.8512 12698.55311
594.0529 12792.78015
594.2546 12885.20498
594.4563 12935.42118
594.6580 12952.76747
594.8597 13056.02606
595.0614 13157.70771
595.2630 13315.79041
595.4647 13487.96315
595.6663 13493.08307
595.8679 13675.08605
596.0695 13905.13438
596.2711 13942.77605
596.4727 14044.21194
596.6742 14216.54851
596.8757 14386.89855
597.0773 14536.85082
597.2788 14548.31945
597.4802 14726.18553
597.6817 14876.95699
597.8832 14840.83082
598.0846 15039.03324
598.2860 15105.67414
598.4875 15095.76197
598.6889 15394.88829
598.8902 15488.58286
599.0916 15659.69065
599.2930 15655.41039
599.4943 15873.70338
599.6956 15992.89516
599.8969 16015.44330
600.0982 16060.70341
600.2995 16103.79267
600.5008 16450.47282
600.7020 16497.69898
600.9032 16665.12043
601.1045 16808.23248
601.3057 16795.20740
601.5068 17003.44486
601.7080 17164.45617
601.9092 17116.51322
602.1103 17469.93119
602.3115 17578.08442
602.5126 17693.20074
602.7137 17688.18322
602.9147 17873.64727
603.1158 18002.30066
603.3169 18211.80787
603.5179 18323.34024
603.7189 18342.81643
603.9199 18530.94284
604.1209 18544.78710
604.3219 18707.37534
604.5229 18939.47164
604.7238 18962.81849
604.9247 19080.47429
605.1257 19240.74832
605.3266 19355.90561
605.5275 19397.58177
605.7283 19547.65692
605.9292 19794.96963
606.1300 19506.28795
606.3309 19716.79866
606.5317 19968.26874
606.7325 20245.37940
606.9332 20339.83171
607.1340 20423.55268
607.3348 20466.94913
607.5355 20454.94804
607.7362 20761.75424
607.9369 20629.00490
608.1376 20899.82829
608.3383 21008.63687
608.5390 21189.26771
608.7396 21273.09107
608.9402 21552.65929
609.1409 21588.37586
609.3415 21488.82410
609.5421 21615.32713
609.7426 21764.78789
609.9432 21887.70697
610.1437 21784.85798
610.3443 22352.55492
610.5448 22303.30127
610.7453 22505.70202
610.9457 22408.15727
611.1462 22564.80640
611.3467 22540.25126
611.5471 22916.48360
611.7475 22789.61193
611.9479 23249.05324
612.1483 22938.76550
612.3487 23413.13650
612.5491 23201.90900
612.7494 23795.84042
612.9497 23469.37372
613.1501 23798.15462
613.3504 23812.92048
613.5506 24292.78004
613.7509 24159.76447
613.9512 24055.52286
614.1514 24129.70028
614.3516 24539.06876
614.5519 24471.26051
614.7521 24705.46622
614.9522 24667.86551
615.1524 24708.76345
615.3526 25031.70764
615.5527 25380.31288
615.7528 25110.34964
615.9529 25218.37999
616.1530 25541.65186
616.3531 25849.93260
616.5532 25998.36937
616.7532 25668.72832
616.9532 25809.40329
617.1533 25764.18414
617.3533 25986.79835
617.5532 25971.45906
617.7532 26140.94895
617.9532 25994.53967
618.1531 26586.13640
618.3530 26160.28178
618.5530 26521.17483
618.7528 26748.02833
618.9527 26849.05463
619.1526 26753.78312
619.3524 26752.14475
619.5523 26869.53432
619.7521 26958.60048
619.9519 27161.92282
620.1517 27301.04133
620.3515 27497.33914
620.5512 27590.00972
620.7510 27604.34550
620.9507 27568.19886
621.1504 27498.89559
621.3501 27798.22671
621.5498 28077.40581
621.7495 28084.38938
621.9492 28121.31426
622.1488 27895.71002
622.3484 27991.26824
622.5480 28028.45935
622.7476 28691.38684
622.9472 28284.02537
623.1468 28330.35043
623.3463 29176.03864
623.5459 29201.37202
623.7454 28957.58182
623.9449 29143.04587
624.1444 29311.71657
624.3439 29580.06192
624.5433 29385.79160
624.7428 29549.36287
624.9422 29439.50982
625.1416 29569.22816
625.3410 29581.20878
625.5404 29872.83953
625.7398 29781.09053
625.9391 29962.09001
626.1385 29617.58070
626.3378 29725.75441
626.5371 30351.81846
626.7364 29894.79375
626.9357 30107.31147
627.1350 30162.58615
627.3342 30221.21949
627.5335 30158.10110
627.7327 30372.29815
627.9319 30384.46308
628.1311 31108.93203
628.3303 30531.01573
628.5294 30602.05976
628.7286 30967.51979
628.9277 31340.94641
629.1268 31252.74039
629.3259 31665.63137
629.5250 31661.00296
629.7241 31626.08510
629.9231 31058.51104
630.1222 31728.15586
630.3212 31772.12575
630.5202 31472.79464
630.7192 31746.60806
630.9182 31614.45263
631.1171 31733.64442
631.3161 31725.88261
631.5150 31419.05594
631.7140 31793.44510
631.9129 32118.47822
632.1118 32316.98783
632.3106 32255.13918
632.5095 32358.39776
632.7083 32075.59376
632.9072 32168.46914
633.1060 32341.58394
633.3048 32034.22479
633.5036 32122.67656
633.7023 32443.20415
633.9011 32832.19533
634.0998 33127.61482
634.2986 32756.74816
634.4973 33132.75523
634.6960 32875.34603
634.8947 32946.59487
635.0933 32979.73100
635.2920 33095.29788
635.4906 32853.53517
635.6892 33189.81164
635.8878 33406.95776
636.0864 33643.53911
636.2850 33281.00768
636.4836 33451.82876
636.6821 33339.39527
636.8806 33640.32380
637.0792 33767.25690
637.2777 33803.42403
637.4761 33708.82836
637.6746 33859.53838
637.8731 34294.48598
638.0715 33902.79148
638.2699 34182.03202
638.4683 34077.83137
638.6667 33934.55547
638.8651 34082.62361
639.0635 34335.22008
639.2618 34253.58804
639.4602 34377.18296
639.6585 34177.42409
639.8568 34470.36554
640.0551 34285.47492
640.2534 34232.65780
640.4516 34512.38985
640.6499 34624.59806
640.8481 35071.64916
641.0463 35028.96949
641.2445 35295.53310
641.4427 34976.50053
641.6409 35022.14976
641.8390 35009.86194
642.0372 35314.47682
642.2353 35156.02547
642.4334 35123.11462
642.6315 35346.65040
642.8296 35249.28997
643.0277 34997.20550
643.2257 35818.89152
643.4237 35644.83465
643.6218 35468.79126
643.8198 35512.74067
644.0178 35650.99904
644.2157 35446.73464
644.4137 35562.30151
644.6116 36387.14141
644.8096 36549.75013
645.0075 35824.99447
645.2054 36248.33009
645.4033 36060.83855
645.6011 35959.25930
645.7990 35998.33454
645.9968 36268.78929
646.1947 36260.84318
646.3925 36574.16191
646.5903 36241.79707
646.7881 36538.89589
646.9858 36217.91775
647.1836 36222.81240
647.3813 36034.89078
