# Averages = 100
# wavelength [µm]	intensity
446.8250 14.33578
447.0374 36746.70328
447.2498 1229.66188
447.4621 1232.52903
447.6745 1235.37571
447.8868 1246.29138
448.0992 1245.55411
448.3115 1236.44065
448.5238 1246.08659
448.7360 1236.85025
448.9483 1244.26389
449.1606 1240.63899
449.3728 1271.48140
449.5850 1239.96316
449.7972 1242.09305
450.0094 1237.97663
450.2216 1253.39783
450.4337 1250.77643
450.6459 1685.23253
450.8580 2019.95254
451.0701 2048.93130
451.2822 2066.54383
451.4943 2055.44384
451.7064 2043.11506
451.9184 2038.40474
452.1305 2097.40672
452.3425 2206.62489
452.5545 2133.47145
452.7665 2120.44636
452.9785 2247.29755
453.1905 2276.21487
453.4024 2204.49500
453.6143 2298.94732
453.8263 2280.61800
454.0382 2397.49558
454.2501 2270.52151
454.4619 2244.40991
454.6738 2377.42548
454.8856 2443.32912
455.0975 2286.12704
455.3093 2301.60968
455.5211 2368.16866
455.7329 2334.54102
455.9446 2379.63729
456.1564 2373.06331
456.3681 2445.02893
456.5798 2505.58737
456.7916 2446.76970
457.0033 2447.01546
457.2149 2393.82971
457.4266 2422.50128
457.6382 2481.54421
457.8499 2457.13243
458.0615 2568.21425
458.2731 2480.68407
458.4847 2571.73676
458.6963 2595.47272
458.9078 2609.15315
459.1194 2765.06501
459.3309 2775.91924
459.5424 2638.45958
459.7539 2532.84583
459.9654 2589.53361
460.1769 2649.33429
460.3883 2634.67084
460.5998 2502.37206
460.8112 2479.88536
461.0226 2547.63217
461.2340 2663.75199
461.4454 2607.22806
461.6567 2559.73566
461.8681 2544.96981
462.0794 2500.05785
462.2907 2615.76809
462.5020 2699.28425
462.7133 2780.52717
462.9246 2855.54427
463.1359 2701.25030
463.3471 2460.02006
463.5583 2532.37480
463.7696 2868.36455
463.9808 2724.72002
464.1919 2616.42344
464.4031 2621.09280
464.6143 2770.59452
464.8254 2606.92086
465.0365 2577.24579
465.2476 2699.16137
465.4587 2736.78256
465.6698 2570.99949
465.8809 2539.78845
466.0919 2571.96203
466.3030 2734.40692
466.5140 2707.20989
466.7250 2598.25795
466.9360 2644.17341
467.1469 2591.02862
467.3579 2494.48738
467.5688 2500.09881
467.7798 2590.63951
467.9907 2774.26039
468.2016 2597.50020
468.4125 2573.66185
468.6233 2486.97133
468.8342 2497.21118
469.0450 2759.12590
469.2559 2756.21778
469.4667 2732.19511
469.6775 2510.72777
469.8882 2542.00025
470.0990 2590.35279
470.3098 2758.30671
470.5205 2628.69077
470.7312 2757.26225
470.9419 2857.67415
471.1526 2705.26432
471.3633 2571.77772
471.5739 2612.06126
471.7846 2595.63655
471.9952 2437.75864
472.2058 2500.99992
472.4164 2482.95731
472.6270 2526.88624
472.8376 2573.14986
473.0481 2717.83885
473.2587 2753.84214
473.4692 2688.65529
473.6797 2631.94704
473.8902 2553.24360
474.1007 2471.69348
474.3111 2475.09311
474.5216 2423.95533
474.7320 2535.18052
474.9424 2661.13059
475.1528 2729.53275
475.3632 2560.28861
475.5736 2554.06279
475.7840 2497.27261
475.9943 2527.62351
476.2046 2568.74672
476.4149 2581.56701
476.6252 2673.43889
476.8355 2810.38656
477.0458 2824.10795
477.2561 2857.42840
477.4663 2744.03237
477.6765 2686.42301
477.8867 2644.70588
478.0969 2657.99720
478.3071 2667.19258
478.5173 2626.68376
478.7274 2709.29882
478.9375 2850.58818
479.1477 2854.95036
479.3578 2836.58008
479.5679 2928.57483
479.7779 2792.75355
479.9880 2729.08220
480.1980 2809.66977
480.4081 2885.56749
480.6181 2812.76220
480.8281 2704.03554
481.0381 2832.17694
481.2480 2884.97358
481.4580 2803.60778
481.6679 2802.76811
481.8778 2748.39454
482.0877 2819.11090
482.2976 2849.42084
482.5075 2887.63594
482.7174 2864.02286
482.9272 2878.66583
483.1371 2818.35315
483.3469 2838.73044
483.5567 2912.43684
483.7665 2939.14235
483.9762 2947.60046
484.1860 2899.86231
484.3957 2954.82979
484.6055 2894.33280
484.8152 2930.52040
485.0249 2973.71206
485.2346 2960.27739
485.4442 2975.06372
485.6539 3021.14302
485.8635 3034.96681
486.0732 2951.61448
486.2828 3007.74930
486.4924 3008.99857
486.7019 2985.16021
486.9115 3031.95630
487.1210 3058.43653
487.3306 3079.73541
487.5401 3118.56489
487.7496 3120.65382
487.9591 3196.44915
488.1686 3184.42757
488.3780 3132.22485
488.5875 3155.34641
488.7969 3185.94307
489.0063 3168.02334
489.2157 3225.77606
489.4251 3199.93069
489.6345 3225.20263
489.8438 3226.84100
490.0531 3205.56261
490.2625 3245.51848
490.4718 3222.02827
490.6811 3266.16200
490.8903 3319.08151
491.0996 3324.97966
491.3089 3319.10199
491.5181 3372.82021
491.7273 3372.51302
491.9365 3369.31819
492.1457 3418.79711
492.3549 3421.52091
492.5640 3417.93697
492.7732 3446.03510
492.9823 3457.09413
493.1914 3524.00127
493.4005 3517.42729
493.6096 3502.76383
493.8187 3492.68782
494.0277 3563.44515
494.2368 3560.25031
494.4458 3591.11320
494.6548 3627.54657
494.8638 3678.90962
495.0728 3622.09897
495.2817 3673.05243
495.4907 3653.47385
495.6996 3722.06033
495.9085 3705.20554
496.1174 3747.02506
496.3263 3746.77931
496.5352 3783.29459
496.7440 3809.16044
496.9529 3826.48625
497.1617 3854.37959
497.3705 3843.79159
497.5793 3916.88359
497.7881 3878.58658
497.9969 3949.67157
498.2056 3967.75514
498.4144 3988.82873
498.6231 4004.31138
498.8318 4026.40896
499.0405 4058.05008
499.2492 4029.87003
499.4578 4103.31019
499.6665 4092.49691
499.8751 4178.08153
500.0837 4203.14866
500.2923 4184.61455
500.5009 4201.71509
500.7095 4258.34142
500.9180 4264.71060
501.1266 4323.79450
501.3351 4330.30704
501.5436 4385.70460
501.7521 4370.44723
501.9606 4429.71545
502.1691 4428.15899
502.3775 4474.72980
502.5860 4506.80099
502.7944 4509.68863
503.0028 4584.29613
503.2112 4613.52064
503.4196 4596.60442
503.6279 4698.18367
503.8363 4642.88851
504.0446 4756.48934
504.2529 4757.61572
504.4612 4806.35738
504.6695 4809.71605
504.8778 4859.52265
505.0860 4869.20954
505.2943 4891.18425
505.5025 4967.16389
505.7107 4983.62955
505.9189 5054.24352
506.1271 5086.35567
506.3353 5106.54864
506.5434 5102.82134
506.7516 5158.60800
506.9597 5180.05024
507.1678 5225.84282
507.3759 5288.30587
507.5840 5274.05200
507.7920 5322.93702
508.0001 5325.47650
508.2081 5453.24927
508.4161 5413.60059
508.6241 5483.84592
508.8321 5495.76510
509.0401 5563.34807
509.2480 5604.96279
509.4560 5583.88920
509.6639 5655.60906
509.8718 5691.96051
510.0797 5738.61323
510.2876 5710.43318
510.4955 5880.86514
510.7033 5923.79057
510.9112 5973.10566
511.1190 5976.81248
511.3268 5973.82245
511.5346 6057.50245
511.7424 6081.70944
511.9501 6148.49370
512.1579 6193.58997
512.3656 6244.64583
512.5733 6237.88754
512.7810 6350.44390
512.9887 6405.49330
513.1964 6472.74859
513.4040 6484.34010
513.6117 6528.63766
513.8193 6549.99797
514.0269 6621.22633
514.2345 6698.51667
514.4421 6714.04027
514.6497 6762.10610
514.8572 6840.46138
515.0647 6848.73517
515.2723 6931.53455
515.4798 7000.05959
515.6873 7074.40085
515.8947 7019.08522
516.1022 7081.36395
516.3097 7141.90190
516.5171 7271.64072
516.7245 7285.83315
516.9319 7328.65617
517.1393 7380.51074
517.3467 7461.24167
517.5540 7506.91137
517.7614 7584.11979
517.9687 7522.70121
518.1760 7603.98509
518.3833 7696.90143
518.5906 7699.39995
518.7978 7859.51015
519.0051 7836.24523
519.2123 7983.45322
519.4196 7911.65144
519.6268 8037.39672
519.8340 8081.59188
520.0411 8183.41689
520.2483 8261.69025
520.4554 8292.83986
520.6626 8358.10862
520.8697 8407.85378
521.0768 8543.06068
521.2839 8568.53741
521.4909 8637.65636
521.6980 8832.58202
521.9050 8850.70655
522.1121 8920.60372
522.3191 8980.89592
522.5261 9041.04476
522.7331 9126.54746
522.9400 9285.30600
523.1470 9303.10284
523.3539 9336.66905
523.5608 9397.32989
523.7677 9450.76139
523.9746 9519.20451
524.1815 9618.49003
524.3884 9710.58719
524.5952 9670.13980
524.8020 9882.78040
525.0089 9807.94762
525.2157 9942.35581
525.4225 10007.52217
525.6292 10055.91568
525.8360 10122.20843
526.0427 10274.14723
526.2494 10326.20659
526.4562 10414.90412
526.6629 10385.55673
526.8695 10460.98342
527.0762 10651.19875
527.2829 10641.20467
527.4895 10889.74615
527.6961 10948.23614
527.9027 11034.29179
528.1093 11013.87354
528.3159 11109.92327
528.5224 11160.46714
528.7290 11413.75992
528.9355 11350.68248
529.1420 11588.26733
529.3485 11468.97315
529.5550 11696.31817
529.7615 11696.05193
529.9680 11881.98701
530.1744 11914.57020
530.3808 12055.85956
530.5872 12012.01255
530.7936 12134.93163
531.0000 12211.54614
531.2064 12295.86102
531.4127 12403.95281
531.6191 12481.40699
531.8254 12523.75898
532.0317 12674.05941
532.2380 12685.71235
532.4443 12887.96974
532.6505 12726.52837
532.8568 12986.10840
533.0630 13148.14369
533.2692 13114.12693
533.4754 13256.03069
533.6816 13437.56264
533.8878 13445.61115
534.0939 13662.55248
534.3001 13640.37298
534.5062 13741.44024
534.7123 13833.12780
534.9184 13803.75993
535.1245 13856.72040
535.3306 13966.30721
535.5366 14136.24765
535.7426 14273.62540
535.9487 14436.62323
536.1547 14307.45784
536.3607 14453.47801
536.5666 14478.42227
536.7726 14607.07567
536.9785 14720.79938
537.1845 14923.11821
537.3904 14824.28324
537.5963 15048.94541
537.8022 15103.13466
538.0080 15293.65719
538.2139 15314.21880
538.4197 15465.56369
538.6256 15467.87790
538.8314 15590.24403
539.0372 15634.48015
539.2430 15877.45117
539.4487 15604.68221
539.6545 16014.23500
539.8602 15951.79243
540.0659 16072.45875
540.2716 16364.56053
540.4773 16360.46460
540.6830 16621.92877
540.8887 16620.59759
541.0943 16565.17955
541.2999 16594.89558
541.5056 16650.66177
541.7112 16803.89079
541.9167 16765.28658
542.1223 17016.75666
542.3279 17026.52547
542.5334 17101.46065
542.7389 17369.53976
542.9444 17485.20903
543.1499 17534.52412
543.3554 17474.86679
543.5609 17741.32800
543.7663 17862.87495
543.9718 17693.61033
544.1772 17960.21490
544.3826 17964.92523
544.5880 18288.21758
544.7934 18273.12405
544.9987 18335.40278
545.2041 18655.95085
545.4094 18501.59544
545.6147 18657.36395
545.8200 18851.90050
546.0253 18875.88221
546.2306 19069.76341
546.4358 18960.01277
546.6411 19203.82345
546.8463 19163.25319
547.0515 19483.06399
547.2567 19431.76237
547.4619 19597.75024
547.6670 19747.53867
547.8722 19761.19862
548.0773 20132.80255
548.2824 20004.45635
548.4876 19996.73551
548.6926 20248.65615
548.8977 20426.78847
549.1028 20630.52040
549.3078 20624.02834
549.5129 20672.31944
549.7179 20738.59171
549.9229 20874.06484
550.1279 20816.57836
550.3328 20866.91743
550.5378 20757.84262
550.7427 21026.98667
550.9476 21075.85120
551.1526 20817.45899
551.3575 21195.00203
551.5623 21183.69724
551.7672 21137.88418
551.9720 21342.88585
552.1769 21285.82944
552.3817 21579.13952
552.5865 21347.16610
552.7913 21510.86025
552.9961 21429.02341
553.2008 21594.56073
553.4056 21828.50020
553.6103 21759.83181
553.8150 22047.28470
554.0197 22070.24243
554.2244 21980.23420
554.4291 21888.34185
554.6337 22163.34309
554.8384 22186.79233
555.0430 22152.73461
555.2476 22072.47472
555.4522 21969.05229
555.6568 22159.37003
555.8613 22242.27180
556.0659 22417.22977
556.2704 22215.01334
556.4750 22470.49744
556.6795 22484.85370
556.8839 22311.34979
557.0884 22512.99279
557.2929 22561.30438
557.4973 22454.74856
557.7018 22489.40019
557.9062 22480.24577
558.1106 22523.43743
558.3150 22475.43305
558.5193 22661.57293
558.7237 22653.34009
558.9280 22509.59317
559.1323 22469.84209
559.3367 22438.54913
559.5410 22512.31696
559.7452 22176.47057
559.9495 22610.61946
560.1537 22531.13780
560.3580 22481.92511
560.5622 22712.97694
560.7664 22799.85178
560.9706 22689.77346
561.1748 22831.75913
561.3789 22847.18033
561.5831 22800.85528
561.7872 22812.30343
561.9913 22876.40485
562.1954 22770.93446
562.3995 22880.05023
562.6036 22879.90687
562.8076 22622.25193
563.0117 22962.44002
563.2157 22910.15537
563.4197 23008.29404
563.6237 22958.05736
563.8277 22725.71531
564.0316 22578.34348
564.2356 22774.47744
564.4395 22852.54601
564.6434 22830.16171
564.8473 22993.24147
565.0512 22955.33356
565.2551 22925.69946
565.4590 23032.70582
565.6628 23088.39009
565.8666 23089.31168
566.0705 23022.95749
566.2743 22926.49816
566.4780 22909.84818
566.6818 22931.47473
566.8856 23121.77198
567.0893 22870.32238
567.2930 22886.21462
567.4967 22786.13039
567.7004 22906.57143
567.9041 23013.80307
568.1078 22878.53474
568.3114 22930.06163
568.5151 22951.25811
568.7187 22466.99542
568.9223 22813.67557
569.1259 22818.44733
569.3295 23049.86780
569.5330 22990.43575
569.7366 22882.83547
569.9401 22958.99943
570.1436 22960.33061
570.3471 23214.01250
570.5506 23092.32219
570.7541 22947.67416
570.9575 23028.73276
571.1609 22861.78235
571.3644 23027.93406
571.5678 23019.25067
571.7712 23151.09890
571.9746 23138.09430
572.1779 22871.28493
572.3813 22691.32991
572.5846 23027.91358
572.7879 22912.42862
572.9912 23173.93375
573.1945 23081.44748
573.3978 22923.52861
573.6010 22951.21715
573.8043 23155.68635
574.0075 22687.95076
574.2107 22850.80524
574.4139 22636.44435
574.6171 22697.67862
574.8203 22406.94897
575.0234 22571.27798
575.2266 22270.28802
575.4297 22326.38188
575.6328 22329.06472
575.8359 22318.53816
576.0390 21814.26682
576.2420 21879.08503
576.4451 21598.80002
576.6481 21777.56722
576.8512 22035.16073
577.0542 21480.61175
577.2571 21697.00013
577.4601 21603.61275
577.6631 21354.84599
577.8660 21285.72704
578.0689 20940.52143
578.2719 21037.28795
578.4748 21028.62504
578.6776 20777.66695
578.8805 20719.56608
579.0834 20493.10170
579.2862 20662.24343
579.4890 20723.27290
579.6918 20724.97272
579.8946 20310.62768
580.0974 20378.02633
580.3002 20194.79457
580.5029 19956.12429
580.7057 20166.73740
580.9084 19780.10138
581.1111 19993.02869
581.3138 19754.80896
581.5164 19595.90707
581.7191 19459.65570
581.9217 19383.57367
582.1244 19159.07533
582.3270 19056.94313
582.5296 19149.90043
582.7322 19191.22844
582.9347 19053.19535
583.1373 18782.59724
583.3398 18779.58672
583.5424 18642.12706
583.7449 18530.90188
583.9474 18422.54385
584.1498 18250.71927
584.3523 18406.50825
584.5548 18135.23431
584.7572 18067.67182
584.9596 18097.77697
585.1620 18190.83667
585.3644 17783.88480
585.5668 17675.89540
585.7691 17759.80068
585.9715 17586.78828
586.1738 17645.99506
586.3761 17449.28766
586.5784 17552.95584
586.7807 17475.31734
586.9830 17410.86777
587.1852 17221.02106
587.3875 17091.56896
587.5897 17174.98273
587.7919 17003.36295
587.9941 16834.85608
588.1963 16765.94193
588.3984 16637.10421
588.6006 16437.61158
588.8027 16630.50975
589.0048 16464.23517
589.2069 16366.97714
589.4090 16471.56690
589.6111 16450.24755
589.8131 16381.88635
590.0152 16410.80367
590.2172 16110.03898
590.4192 16282.86706
590.6212 16044.17630
590.8232 15833.01024
591.0252 15983.53595
591.2271 15878.45467
591.4291 15840.19861
591.6310 15701.61257
591.8329 15609.47445
592.0348 15604.19070
592.2367 15515.67749
592.4385 15599.11173
592.6404 15655.81999
592.8422 15612.44401
593.0440 15617.23626
593.2458 15654.46833
593.4476 15569.55954
593.6494 15514.28487
593.8512 15535.37895
594.0529 15450.67496
594.2546 15429.56040
594.4563 15298.24464
594.6580 15177.80360
594.8597 15140.14146
595.0614 15017.69340
595.2630 15151.95824
595.4647 15029.69450
595.6663 14907.41029
595.8679 14901.73741
596.0695 14964.89677
596.2711 14796.45134
596.4727 14786.12958
596.6742 14785.65855
596.8757 14790.24600
597.0773 14725.87834
597.2788 14538.50968
597.4802 14625.24115
597.6817 14642.85368
597.8832 14461.85421
598.0846 14438.42544
598.2860 14327.52794
598.4875 14163.71092
598.6889 14237.27395
598.8902 14188.02030
599.0916 14163.87475
599.2930 14040.05456
599.4943 14075.70970
599.6956 14013.26713
599.8969 13839.02595
600.0982 13735.50113
600.2995 13604.06250
600.5008 13760.30203
600.7020 13587.86306
600.9032 13601.40014
601.1045 13498.79690
601.3057 13376.84036
601.5068 13442.60064
601.7080 13404.71322
601.9092 13206.89992
602.1103 13315.68802
602.3115 13247.04010
602.5126 13162.17228
602.7137 13018.09768
602.9147 12974.49642
603.1158 12972.73517
603.3169 12910.21068
603.5179 12867.08046
603.7189 12702.11658
603.9199 12698.61455
604.1209 12568.71189
604.3219 12500.96509
604.5229 12530.68111
604.7238 12461.48025
604.9247 12373.78623
605.1257 12341.22353
605.3266 12292.37947
605.5275 12137.28680
605.7283 12124.67131
605.9292 12127.16983
606.1300 11854.38039
606.3309 11811.18873
606.5317 11863.59625
606.7325 11913.62813
606.9332 11846.51619
607.1340 11732.42385
607.3348 11609.42285
607.5355 11504.17774
607.7362 11557.30205
607.9369 11312.03731
608.1376 11377.69519
608.3383 11228.48018
608.5390 11249.28755
608.7396 11167.63503
608.9402 11202.73722
609.1409 11162.51511
609.3415 10958.92654
609.5421 10900.00648
609.7426 10870.43381
609.9432 10788.78129
610.1437 10571.92188
610.3443 10728.85773
610.5448 10603.56300
610.7453 10553.69496
610.9457 10466.88157
611.1462 10451.78804
611.3467 10342.40603
611.5471 10405.72922
611.7475 10243.73489
611.9479 10349.69679
612.1483 10091.22266
612.3487 10225.99948
612.5491 9983.86814
612.7494 10094.72468
612.9497 9902.91193
613.1501 9928.92113
613.3504 9825.90831
613.5506 9962.24159
613.7509 9851.26216
613.9512 9691.27484
614.1514 9607.90203
614.3516 9718.75858
614.5519 9618.57195
614.7521 9661.41546
614.9522 9545.52090
615.1524 9460.91932
615.3526 9448.34479
615.5527 9511.54510
615.7528 9384.59152
615.9529 9366.18028
616.1530 9377.87418
616.3531 9396.89981
616.5532 9371.15685
616.7532 9201.15496
616.9532 9194.54002
617.1533 9104.14268
617.3533 9138.07752
617.5532 9070.69935
617.7532 9075.34824
617.9532 8979.29850
618.1531 9082.02462
618.3530 8900.10355
618.5530 8921.03379
618.7528 8937.23323
618.9527 8934.36607
619.1526 8832.62298
619.3524 8825.76229
619.5523 8798.56526
619.7521 8774.25587
619.9519 8801.61674
620.1517 8741.22214
620.3515 8807.10529
620.5512 8811.01691
620.7510 8775.99665
620.9507 8685.39451
621.1504 8667.14711
621.3501 8641.62942
621.5498 8697.68232
621.7495 8650.70192
621.9492 8647.22037
622.1488 8547.17710
622.3484 8545.82544
622.5480 8524.17841
622.7476 8705.62844
622.9472 8584.22485
623.1468 8559.11676
623.3463 8756.47950
623.5459 8727.95130
623.7454 8666.36888
623.9449 8697.82568
624.1444 8715.80685
624.3439 8763.66787
624.5433 8693.38159
624.7428 8735.54926
624.9422 8708.14744
625.1416 8761.25127
625.3410 8713.39024
625.5404 8767.62045
625.7398 8778.29037
625.9391 8842.92427
626.1385 8768.11197
626.3378 8823.16137
626.5371 8913.49727
626.7364 8802.43592
626.9357 8878.14933
627.1350 8923.77807
627.3342 8926.03084
627.5335 8953.49410
627.7327 8994.18724
627.9319 9057.98146
628.1311 9229.10973
628.3303 9110.49138
628.5294 9172.46292
628.7286 9246.86562
628.9277 9351.25059
629.1268 9352.64321
629.3259 9452.64552
629.5250 9483.48793
629.7241 9492.33516
629.9231 9372.24227
630.1222 9606.14078
630.3212 9615.84815
630.5202 9547.24120
630.7192 9707.24900
630.9182 9707.12612
631.1171 9757.01464
631.3161 9820.84982
631.5150 9783.39247
631.7140 9898.01729
631.9129 9996.40170
632.1118 10105.31268
632.3106 10131.77244
632.5095 10210.49636
632.7083 10140.00527
632.9072 10271.79206
633.1060 10340.78813
633.3048 10309.20845
633.5036 10367.45268
633.7023 10477.89964
633.9011 10662.09395
634.0998 10763.48888
634.2986 10738.03263
634.4973 10928.12509
634.6960 10908.99706
634.8947 10942.50183
635.0933 11006.45989
635.2920 11098.45465
635.4906 11090.16037
635.6892 11311.27956
635.8878 11336.61293
636.0864 11473.58108
636.2850 11454.22778
636.4836 11526.48012
636.6821 11569.03691
636.8806 11730.66260
637.0792 11837.54609
637.2777 11872.30012
637.4761 11955.87773
637.6746 12075.68390
637.8731 12253.57046
638.0715 12219.26699
638.2699 12404.87439
638.4683 12399.59063
638.6667 12411.57125
638.8651 12539.61026
639.0635 12696.07507
639.2618 12758.96819
639.4602 12891.43081
639.6585 12901.60921
639.8568 13119.39021
640.0551 13177.90068
640.2534 13209.97187
640.4516 13425.31578
640.6499 13477.10891
640.8481 13721.51350
641.0463 13849.14292
641.2445 14011.85403
641.4427 13957.74670
641.6409 14052.01470
641.8390 14151.73030
642.0372 14257.71268
642.2353 14269.57042
642.4334 14349.21592
642.6315 14535.78588
642.8296 14580.67735
643.0277 14608.42733
643.2257 14980.91189
643.4237 15003.48050
643.6218 15006.59341
643.8198 15145.01562
644.0178 15369.37060
644.2157 15323.06603
644.4137 15419.68919
644.6116 16003.72892
644.8096 16062.75138
645.0075 15834.44382
645.2054 16148.27455
645.4033 16165.76421
645.6011 16258.39383
645.7990 16266.83146
645.9968 16524.95745
