# Averages = 100
# wavelength [µm]	intensity
446.8250 14.33578
447.0374 36746.70328
447.2498 1231.52553
447.4621 1219.19676
447.6745 1235.94914
447.8868 1244.26389
448.0992 1235.64195
448.3115 1235.94914
448.5238 1243.95670
448.7360 1244.63253
448.9483 1244.67349
449.1606 1239.92220
449.3728 1268.04081
449.5850 1232.40615
449.7972 1252.49673
450.0094 1237.21888
450.2216 1243.87478
450.4337 1252.66057
450.6459 1700.98140
450.8580 2048.60362
451.0701 2075.90304
451.2822 2100.66299
451.4943 2087.94510
451.7064 2074.01891
451.9184 2056.07871
452.1305 2123.02680
452.3425 2237.26250
452.5545 2169.45426
452.7665 2159.62401
452.9785 2276.99310
453.1905 2314.83956
453.4024 2230.38133
453.6143 2329.56445
453.8263 2317.82959
454.0382 2423.42286
454.2501 2297.04271
454.4619 2283.09604
454.6738 2423.56622
454.8856 2484.71857
455.0975 2320.41003
455.3093 2331.44858
455.5211 2417.42231
455.7329 2372.61276
455.9446 2411.85184
456.1564 2410.15202
456.3681 2472.49219
456.5798 2543.12663
456.7916 2493.15620
457.0033 2482.69108
457.2149 2439.92949
457.4266 2460.53205
457.6382 2526.86576
457.8499 2492.60325
458.0615 2613.72012
458.2731 2529.58956
458.4847 2619.70019
458.6963 2637.59943
458.9078 2663.85439
459.1194 2827.83525
459.3309 2830.84576
459.5424 2670.10070
459.7539 2577.04100
459.9654 2637.72231
460.1769 2705.30528
460.3883 2689.47448
460.5998 2546.73106
460.8112 2509.90858
461.0226 2596.86533
461.2340 2705.32576
461.4454 2654.80237
461.6567 2593.46571
461.8681 2593.36331
462.0794 2546.75154
462.2907 2663.09664
462.5020 2742.10728
462.7133 2847.78247
462.9246 2908.62762
463.1359 2759.45357
463.3471 2514.72131
463.5583 2568.93104
463.7696 2920.93591
463.9808 2777.61906
464.1919 2675.77357
464.4031 2666.29147
464.6143 2825.43913
464.8254 2655.84683
465.0365 2627.83062
465.2476 2740.81706
465.4587 2787.42883
465.6698 2623.34557
465.8809 2585.74486
466.0919 2609.76754
466.3030 2797.46387
466.5140 2756.21778
466.7250 2649.43669
466.9360 2703.17539
467.1469 2652.59056
467.3579 2535.16004
467.5688 2534.27941
467.7798 2641.75681
467.9907 2835.26938
468.2016 2645.27932
468.4125 2634.67084
468.6233 2523.85525
468.8342 2543.02424
469.0450 2820.42160
469.2559 2799.18417
469.4667 2780.36333
469.6775 2566.41204
469.8882 2595.18600
470.0990 2649.53909
470.3098 2812.65980
470.5205 2670.79701
470.7312 2818.18932
470.9419 2911.45381
471.1526 2757.30321
471.3633 2625.57786
471.5739 2669.11767
471.7846 2644.52157
471.9952 2483.83794
472.2058 2548.45135
472.4164 2524.69492
472.6270 2583.47162
472.8376 2628.15830
473.0481 2770.81980
473.2587 2816.12087
473.4692 2749.97148
473.6797 2683.28962
473.8902 2597.86884
474.1007 2539.33789
474.3111 2513.16485
474.5216 2468.00714
474.7320 2583.45114
474.9424 2714.95121
475.1528 2793.61369
475.3632 2612.22510
475.5736 2608.72307
475.7840 2556.60227
475.9943 2572.90410
476.2046 2621.78911
476.4149 2645.09500
476.6252 2726.23552
476.8355 2870.78115
477.0458 2882.49554
477.2561 2920.44440
477.4663 2803.50538
477.6765 2742.72167
477.8867 2681.71268
478.0969 2714.15250
478.3071 2731.62168
478.5173 2671.12468
478.7274 2747.04288
478.9375 2904.55216
479.1477 2913.44034
479.3578 2910.36839
479.5679 3004.59543
479.7779 2847.90534
479.9880 2799.36848
480.1980 2872.56289
480.4081 2947.43663
480.6181 2873.52543
480.8281 2773.50264
481.0381 2899.57560
481.2480 2939.47003
481.4580 2859.51733
481.6679 2860.68467
481.8778 2804.91848
482.0877 2879.30070
482.2976 2911.47429
482.5075 2967.44528
482.7174 2933.48996
482.9272 2938.89660
483.1371 2876.16731
483.3469 2895.70493
483.5567 2995.23622
483.7665 3008.19986
483.9762 3013.54506
484.1860 2972.27849
484.3957 3013.17642
484.6055 2962.69399
484.8152 2997.36610
485.0249 3050.20370
485.2346 3022.24892
485.4442 3044.83802
485.6539 3107.97690
485.8635 3110.92597
486.0732 3029.76497
486.2828 3079.20293
486.4924 3067.03800
486.7019 3060.66882
486.9115 3096.93834
487.1210 3132.51156
487.3306 3154.48627
487.5401 3188.52351
487.7496 3183.28071
487.9591 3272.81790
488.1686 3258.15444
488.3780 3207.05762
488.5875 3242.58988
488.7969 3253.50555
489.0063 3244.16682
489.2157 3309.96805
489.4251 3289.40645
489.6345 3302.69776
489.8438 3302.26769
490.0531 3293.89150
490.2625 3332.55715
490.4718 3311.97506
490.6811 3368.13037
490.8903 3408.78255
491.0996 3412.55081
491.3089 3415.02885
491.5181 3449.31185
491.7273 3471.04080
491.9365 3446.54709
492.1457 3519.76197
492.3549 3505.77435
492.5640 3498.29926
492.7732 3545.34110
492.9823 3539.21768
493.1914 3630.70044
493.4005 3605.69474
493.6096 3597.48239
493.8187 3591.07224
494.0277 3662.56683
494.2368 3671.57790
494.4458 3694.86330
494.6548 3742.29426
494.8638 3773.75106
495.0728 3721.36402
495.2817 3774.91840
495.4907 3754.97118
495.6996 3799.33019
495.9085 3817.74143
496.1174 3851.38955
496.3263 3858.72128
496.5352 3896.48582
496.7440 3902.71165
496.9529 3941.76641
497.1617 3962.28706
497.3705 3946.84537
497.5793 4025.40546
497.7881 4005.70400
497.9969 4062.61705
498.2056 4086.04581
498.4144 4109.78177
498.6231 4132.10463
498.8318 4156.65977
499.0405 4186.53964
499.2492 4144.72012
499.4578 4225.88112
499.6665 4226.92558
499.8751 4290.69933
500.0837 4332.70317
500.2923 4338.74467
500.5009 4328.17716
500.7095 4395.92396
500.9180 4390.70164
501.1266 4476.04050
501.3351 4476.16338
501.5436 4526.58437
501.7521 4503.48328
501.9606 4563.85740
502.1691 4571.10721
502.3775 4599.38966
502.5860 4637.15420
502.7944 4669.34827
503.0028 4739.22496
503.2112 4766.58583
503.4196 4751.61517
503.6279 4852.39572
503.8363 4785.36570
504.0446 4922.90728
504.2529 4913.83478
504.4612 4974.12698
504.6695 4982.21646
504.8778 5001.16017
505.0860 5025.34668
505.2943 5055.36990
505.5025 5155.69989
505.7107 5142.34713
505.9189 5231.18802
506.1271 5255.88652
506.3353 5273.58097
506.5434 5276.55052
506.7516 5357.03570
506.9597 5365.45285
507.1678 5393.79674
507.3759 5456.30074
507.5840 5473.91327
507.7920 5504.79664
508.0001 5514.68833
508.2081 5651.34929
508.4161 5628.51443
508.6241 5692.06290
508.8321 5700.93061
509.0401 5760.60842
509.2480 5805.04934
509.4560 5788.80895
509.6639 5855.94136
509.8718 5915.08670
510.0797 5946.91214
510.2876 5925.08079
510.4955 6117.52841
510.7033 6132.47858
510.9112 6198.73037
511.1190 6195.20787
511.3268 6183.14533
511.5346 6279.80946
511.7424 6316.14042
511.9501 6387.73741
512.1579 6436.49955
512.3656 6483.00892
512.5733 6478.36003
512.7810 6612.46102
512.9887 6656.69715
513.1964 6731.71424
513.4040 6732.14431
513.6117 6783.52785
513.8193 6845.54034
514.0269 6890.45230
514.2345 6962.47936
514.4421 6962.27456
514.6497 7020.66215
514.8572 7116.09750
515.0647 7135.02073
515.2723 7222.59187
515.4798 7259.80346
515.6873 7375.47274
515.8947 7318.66208
516.1022 7377.02919
516.3097 7459.45994
516.5171 7577.75061
516.7245 7564.62313
516.9319 7646.13229
517.1393 7725.20436
517.3467 7792.07054
517.5540 7827.45944
517.7614 7916.58704
517.9687 7869.68856
518.1760 7941.87945
518.3833 8031.43713
518.5906 8045.71147
518.7978 8213.41963
519.0051 8185.79253
519.2123 8325.56640
519.4196 8254.31757
519.6268 8390.56893
519.8340 8457.82422
520.0411 8556.10624
520.2483 8629.05489
520.4554 8654.01963
520.6626 8738.27306
520.8697 8800.77707
521.0768 8942.08691
521.2839 8970.06217
521.4909 9048.04882
521.6980 9223.92837
521.9050 9256.32724
522.1121 9336.79193
522.3191 9406.25903
522.5261 9466.34643
522.7331 9567.55705
522.9400 9737.82517
523.1470 9728.85507
523.3539 9797.25722
523.5608 9838.66715
523.7677 9937.99364
523.9746 9981.55393
524.1815 10086.86048
524.3884 10196.73401
524.5952 10141.41837
524.8020 10353.38314
525.0089 10289.28172
525.2157 10417.34120
525.4225 10507.45183
525.6292 10543.08648
525.8360 10619.29140
526.0427 10745.18004
526.2494 10868.26296
526.4562 10958.66030
526.6629 10945.67618
526.8695 11019.28018
527.0762 11207.81618
527.2829 11180.96731
527.4895 11444.29513
527.6961 11533.48417
527.9027 11629.24719
528.1093 11621.64923
528.3159 11688.14677
528.5224 11752.57587
528.7290 12029.19501
528.9355 11979.14265
529.1420 12219.96330
529.3485 12112.50637
529.5550 12328.87427
529.7615 12322.85325
529.9680 12565.76282
530.1744 12573.58606
530.3808 12716.75955
530.5872 12680.94058
530.7936 12833.10466
531.0000 12909.86253
531.2064 13009.90580
531.4127 13113.18487
531.6191 13216.89400
531.8254 13236.28827
532.0317 13400.28960
532.2380 13426.44217
532.4443 13634.70011
532.6505 13488.04507
532.8568 13740.08858
533.0630 13923.68898
533.2692 13894.58734
533.4754 14032.43612
533.6816 14304.85692
533.8878 14250.27855
534.0939 14469.12450
534.3001 14485.75400
534.5062 14574.82016
534.7123 14667.94130
534.9184 14689.60881
535.1245 14707.40566
535.3306 14858.25904
535.5366 15026.58159
535.7426 15160.49827
535.9487 15377.68535
536.1547 15204.63199
536.3607 15374.57244
536.5666 15418.87000
536.7726 15552.47948
536.9785 15686.06849
537.1845 15894.14211
537.3904 15807.47207
537.5963 16057.18090
537.8022 16111.10392
538.0080 16314.83585
538.2139 16395.71014
538.4197 16541.07496
538.6256 16529.46298
538.8314 16668.43814
539.0372 16735.07904
539.2430 16966.76574
539.4487 16677.06008
539.6545 17135.21117
539.8602 17037.89170
540.0659 17235.07013
540.2716 17522.03151
540.4773 17503.06732
540.6830 17807.78459
540.8887 17791.40084
541.0943 17736.80199
541.2999 17799.44936
541.5056 17866.17218
541.7112 18060.72921
541.9167 18013.66689
542.1223 18256.90414
542.3279 18315.45556
542.5334 18416.11323
542.7389 18732.29912
542.9444 18796.68726
543.1499 18902.30101
543.3554 18794.43450
543.5609 19071.89330
543.7663 19219.53137
543.9718 19073.01968
544.1772 19371.51113
544.3826 19351.76871
544.5880 19726.79275
544.7934 19799.92571
544.9987 19803.69398
545.2041 20161.31028
545.4094 20007.69214
545.6147 20155.78076
545.8200 20405.22336
546.0253 20471.76186
546.2306 20671.90985
546.4358 20543.74796
546.6411 20848.09660
546.8463 20771.68688
547.0515 21117.87552
547.2567 21115.00837
547.4619 21269.42521
547.6670 21433.30367
547.8722 21493.47299
548.0773 21909.08777
548.2824 21767.75745
548.4876 21731.77463
548.6926 22087.60920
548.8977 22255.74744
549.1028 22502.60959
549.3078 22470.59984
549.5129 22536.74923
549.7179 22555.79534
549.9229 22732.18689
550.1279 22696.55223
550.3328 22842.01945
550.5378 22724.48653
550.7427 22976.81676
550.9476 23056.15507
551.1526 22771.85604
551.3575 23226.46415
551.5623 23251.46985
551.7672 23215.75327
551.9720 23477.83183
552.1769 23398.71880
552.3817 23751.46094
552.5865 23479.12205
552.7913 23682.91542
552.9961 23623.72913
553.2008 23773.35372
553.4056 24097.81341
553.6103 24006.65832
553.8150 24368.63680
554.0197 24379.61391
554.2244 24296.24110
554.4291 24174.36648
554.6337 24501.26325
554.8384 24519.01914
555.0430 24504.58096
555.2476 24404.04618
555.4522 24411.27551
555.6568 24597.86594
555.8613 24724.81952
556.0659 24949.33834
556.2704 24721.41990
556.4750 25009.17998
556.6795 25080.61313
556.8839 24892.58912
557.0884 25145.94334
557.2929 25178.11693
557.4973 25104.32861
557.7018 25103.59134
557.9062 25154.68816
558.1106 25248.13698
558.3150 25168.63483
558.5193 25365.89518
558.7237 25389.30346
558.9280 25319.91828
559.1323 25259.01169
559.3367 25249.89823
559.5410 25348.44649
559.7452 25017.41282
559.9495 25493.87275
560.1537 25408.30861
560.3580 25427.84624
560.5622 25668.21633
560.7664 25722.42606
560.9706 25719.64082
561.1748 25927.57109
561.3789 25964.96700
561.5831 25945.67513
561.7872 25921.38623
561.9913 26022.65828
562.1954 25888.27057
562.3995 26070.17115
562.6036 26072.87447
562.8076 25835.98593
563.0117 26183.48527
563.2157 26154.42459
563.4197 26304.82741
563.6237 26279.73980
563.8277 26028.65883
564.0316 25881.69659
564.2356 26145.82312
564.4395 26289.18093
564.6434 26262.29110
564.8473 26536.98515
565.0512 26460.30920
565.2551 26493.95733
565.4590 26647.88266
565.6628 26685.64720
565.8666 26803.61020
566.0705 26762.54843
566.2743 26649.58247
566.4780 26602.41775
566.6818 26629.96293
566.8856 26922.61767
567.0893 26719.09053
567.2930 26781.71742
567.4967 26662.79187
567.7004 26850.20149
567.9041 26960.54605
568.1078 26854.68654
568.3114 26886.79869
568.5151 27026.85928
568.7187 26487.81342
568.9223 26947.84864
569.1259 26949.63038
569.3295 27314.61937
569.5330 27270.62900
569.7366 27146.82929
569.9401 27283.65408
570.1436 27296.53580
570.3471 27602.35897
570.5506 27573.46214
570.7541 27369.11581
570.9575 27572.66343
571.1609 27374.66581
571.3644 27665.19066
571.5678 27711.82290
571.7712 27900.29747
571.9746 27834.76247
572.1779 27665.29305
572.3813 27501.04596
572.5846 27940.29430
572.7879 27763.82083
572.9912 28122.80927
573.1945 28101.44896
573.3978 27899.43732
573.6010 28027.35345
573.8043 28315.99417
574.0075 27811.08795
574.2107 28024.30198
574.4139 27818.05104
574.6171 27929.56294
574.8203 27610.83757
575.0234 27858.70322
575.2266 27563.69333
575.4297 27723.94688
575.6328 27760.11401
575.8359 27827.18498
576.0390 27198.45858
576.2420 27411.14013
576.4451 27055.83803
576.6481 27368.76766
576.8512 27689.47957
577.0542 27118.58780
577.2571 27406.24549
577.4601 27387.40417
577.6631 27113.11972
577.8660 27128.86860
578.0689 26699.12284
578.2719 26811.16721
578.4748 26858.74152
578.6776 26635.75868
578.8805 26639.46551
579.0834 26393.15631
579.2862 26670.10312
579.4890 26720.17596
579.6918 26885.05792
579.8946 26376.67016
580.0974 26525.10693
580.3002 26356.96870
580.5029 26152.68382
580.7057 26407.90168
580.9084 25990.13654
581.1111 26324.63127
581.3138 26077.33905
581.5164 25914.58697
581.7191 25791.05349
581.9217 25786.09741
582.1244 25547.11994
582.3270 25536.90057
582.5296 25644.23461
582.7322 25805.02064
582.9347 25621.29736
583.1373 25372.96067
583.3398 25394.01379
583.5424 25314.47069
583.7449 25232.20378
583.9474 25144.28448
584.1498 24970.98537
584.3523 25192.14551
584.5548 24914.07232
584.7572 24971.08777
584.9596 25063.06204
585.1620 25302.28527
585.3644 24818.90321
585.5668 24773.97077
585.7691 24907.17066
585.9715 24709.48024
586.1738 24896.17307
586.3761 24689.10295
586.5784 24925.33614
586.7807 24848.49636
586.9830 24818.80081
587.1852 24677.53192
587.3875 24550.57834
587.5897 24773.92981
587.7919 24649.67955
587.9941 24449.55204
588.1963 24447.48360
588.3984 24342.89383
588.6006 24097.99773
588.8027 24514.04258
589.0048 24364.11079
589.2069 24332.26487
589.4090 24497.92507
589.6111 24641.75391
589.8131 24613.90154
590.0152 24745.19681
590.2172 24395.58807
590.4192 24766.70048
590.6212 24474.84446
590.8232 24247.13081
591.0252 24571.87722
591.2271 24590.30894
591.4291 24580.66300
591.6310 24466.38635
591.8329 24398.16851
592.0348 24568.84622
592.2367 24477.46586
592.4385 24736.26767
592.6404 24959.12763
592.8422 25036.35653
593.0440 25125.81180
593.2458 25273.18364
593.4476 25307.44615
593.6494 25370.31879
593.8512 25491.00559
594.0529 25464.09528
594.2546 25502.55614
594.4563 25454.28551
594.6580 25333.63967
594.8597 25388.62763
595.0614 25372.65348
595.2630 25596.02543
595.4647 25664.46855
595.6663 25531.51441
595.8679 25681.58956
596.0695 25933.67404
596.2711 25757.48729
596.4727 25843.03094
596.6742 25954.66572
596.8757 26151.27072
597.0773 26225.12047
597.2788 26031.40311
597.4802 26226.43117
597.6817 26381.50336
597.8832 26221.29077
598.0846 26360.30689
598.2860 26265.85457
598.4875 26092.37114
598.6889 26514.94901
598.8902 26572.10782
599.0916 26684.68466
599.2930 26556.56373
599.4943 26777.17093
599.6956 26796.42183
599.8969 26695.17026
600.0982 26595.57754
600.2995 26435.03727
600.5008 26902.19942
600.7020 26752.14475
600.9032 26967.42722
601.1045 27021.53456
601.3057 26901.21639
601.5068 27184.04088
601.7080 27307.47195
601.9092 27017.74582
602.1103 27470.63363
602.3115 27397.60306
602.5126 27354.06324
602.7137 27227.29398
602.9147 27400.18350
603.1158 27550.15625
603.3169 27653.47628
603.5179 27781.74056
603.7189 27608.74864
603.9199 27762.67397
604.1209 27598.09920
604.3219 27677.80614
604.5229 27875.96760
604.7238 27841.33645
604.9247 27924.09487
605.1257 27921.86258
605.3266 28039.57982
605.5275 27874.88218
605.7283 28048.42705
605.9292 28225.61730
606.1300 27708.73047
606.3309 27873.14140
606.5317 28181.40166
606.7325 28431.80680
606.9332 28379.93175
607.1340 28363.77328
607.3348 28310.48513
607.5355 28221.00937
607.7362 28552.24784
607.9369 28138.94727
608.1376 28448.47726
608.3383 28383.00370
608.5390 28568.46775
608.7396 28483.35417
608.9402 28769.12773
609.1409 28787.68233
609.3415 28554.11149
609.5421 28509.09714
609.7426 28585.40445
609.9432 28534.00044
610.1437 28241.75530
610.3443 28886.49682
610.5448 28690.83389
610.7453 28849.59242
610.9457 28661.79369
611.1462 28703.98185
611.3467 28578.76904
611.5471 28905.19477
611.7475 28603.44706
611.9479 29057.62509
612.1483 28620.60904
612.3487 29096.98705
612.5491 28637.60718
612.7494 29232.74690
612.9497 28761.87792
613.1501 28968.45653
613.3504 28925.96118
613.5506 29463.18434
613.7509 29146.77317
613.9512 28809.28840
614.1514 28835.91199
614.3516 29246.89836
614.5519 29035.83470
614.7521 29306.26897
614.9522 29080.99241
615.1524 28891.16619
615.3526 29184.12812
615.5527 29451.77715
615.7528 29059.26346
615.9529 29068.86844
616.1530 29280.77176
616.3531 29532.46712
616.5532 29607.54566
616.7532 29202.53936
616.9532 29160.76080
617.1533 28973.65837
617.3533 29186.03273
617.5532 28970.09490
617.7532 29133.83001
617.9532 28832.20517
618.1531 29374.24106
618.3530 28784.22126
618.5530 29007.92089
618.7528 29067.76253
618.9527 29075.89297
619.1526 28830.13672
619.3524 28739.22739
619.5523 28871.89480
619.7521 28883.97782
619.9519 28947.71061
620.1517 28936.18054
620.3515 29023.28065
620.5512 29104.78981
620.7510 28928.60306
620.9507 28627.49021
621.1504 28524.76410
621.3501 28708.81505
621.5498 28956.10728
621.7495 28776.23418
621.9492 28824.32049
622.1488 28351.62882
622.3484 28336.88345
622.5480 28210.81049
622.7476 28786.69930
622.9472 28256.35732
623.1468 28230.94202
623.3463 28980.60098
623.5459 28784.36462
623.7454 28465.18869
623.9449 28462.15770
624.1444 28537.64582
624.3439 28630.78744
624.5433 28313.57756
624.7428 28330.45283
624.9422 28100.69121
625.1416 28101.18272
625.3410 27951.37381
625.5404 28089.12019
625.7398 27808.05696
625.9391 27979.10331
626.1385 27610.10030
626.3378 27651.83790
626.5371 28045.08886
626.7364 27489.33158
626.9357 27575.91970
627.1350 27465.47274
627.3342 27394.98166
627.5335 27264.91516
627.7327 27309.19225
627.9319 27281.40131
628.1311 27791.77560
628.3303 27206.13846
628.5294 27222.52221
628.7286 27319.55497
628.9277 27388.32576
629.1268 27171.48683
629.3259 27304.72768
629.5250 27227.31446
629.7241 27165.38388
629.9231 26538.43921
630.1222 27044.28749
630.3212 26931.62873
630.5202 26573.86907
630.7192 26651.71236
630.9182 26335.05543
631.1171 26384.08380
631.3161 26180.33139
631.5150 25910.79823
631.7140 26127.84195
631.9129 26135.97239
632.1118 26168.94469
632.3106 26080.98443
632.5095 25982.12898
632.7083 25696.45782
632.9072 25741.86128
633.1060 25750.58563
633.3048 25357.47803
633.5036 25373.43171
633.7023 25352.82914
633.9011 25472.61483
634.0998 25627.87134
634.2986 25184.26083
634.4973 25264.88936
634.6960 25076.53768
634.8947 24951.44775
635.0933 24830.00320
635.2920 24753.65492
635.4906 24483.50737
635.6892 24541.73112
635.8878 24629.89617
636.0864 24601.90044
636.2850 24216.49320
636.4836 24155.19750
636.6821 23956.42165
636.8806 24044.15663
637.0792 24104.24403
637.2777 23910.71099
637.4761 23657.19293
637.6746 23522.43659
637.8731 23802.06624
638.0715 23425.40383
638.2699 23494.70709
638.4683 23396.99850
638.6667 23141.12529
638.8651 23196.97340
639.0635 23160.58099
639.2618 22965.55293
639.4602 22890.20816
639.6585 22624.93477
639.8568 22750.31141
640.0551 22514.30349
640.2534 22292.26272
640.4516 22331.66564
640.6499 22260.37585
640.8481 22358.35067
641.0463 22203.27848
641.2445 22177.02352
641.4427 21957.19455
641.6409 21798.37458
641.8390 21746.92960
642.0372 21832.61662
642.2353 21638.71493
642.4334 21500.02649
642.6315 21471.37541
642.8296 21285.29697
643.0277 21013.04000
643.2257 21269.11801
643.4237 21028.54313
643.6218 20729.21201
643.8198 20710.37070
644.0178 20565.00588
644.2157 20432.35894
644.4137 20356.42026
644.6116 20671.72553
644.8096 20677.88992
645.0075 20104.17195
