# Averages = 100
# wavelength [µm]	intensity
446.8250 14.33578
447.0374 36746.70328
447.2498 1225.81170
447.4621 1219.64731
447.6745 1228.28974
447.8868 1236.31778
448.0992 1246.35282
448.3115 1234.69988
448.5238 1247.41777
448.7360 1245.18548
448.9483 1251.63658
449.1606 1241.62201
449.3728 1272.38250
449.5850 1234.08549
449.7972 1241.58105
450.0094 1236.19490
450.2216 1256.92034
450.4337 1248.48271
450.6459 1680.44028
450.8580 2010.59332
451.0701 2033.96064
451.2822 2040.51414
451.4943 2042.88979
451.7064 2027.57098
451.9184 2021.59091
452.1305 2087.14639
452.3425 2185.51033
452.5545 2122.98585
452.7665 2111.35338
452.9785 2228.29240
453.1905 2266.13886
453.4024 2184.93690
453.6143 2272.77428
453.8263 2263.00547
454.0382 2375.66423
454.2501 2239.24903
454.4619 2229.19350
454.6738 2358.91185
454.8856 2412.48671
455.0975 2274.35122
455.3093 2275.53904
455.5211 2352.82938
455.7329 2323.80966
455.9446 2344.30983
456.1564 2360.69358
456.3681 2426.22858
456.5798 2487.62668
456.7916 2413.16254
457.0033 2420.43283
457.2149 2390.30721
457.4266 2408.08357
457.6382 2462.51858
457.8499 2430.83651
458.0615 2554.77958
458.2731 2459.61047
458.4847 2544.96981
458.6963 2568.25521
458.9078 2588.73490
459.1194 2730.86393
459.3309 2752.26520
459.5424 2602.51773
459.7539 2511.23976
459.9654 2569.91407
460.1769 2614.64170
460.3883 2620.47841
460.5998 2477.57115
460.8112 2453.91712
461.0226 2528.62702
461.2340 2644.09149
461.4454 2574.66535
461.6567 2526.80432
461.8681 2523.46613
462.0794 2478.86137
462.2907 2585.92918
462.5020 2666.39387
462.7133 2769.89821
462.9246 2829.65794
463.1359 2663.28096
463.3471 2434.25662
463.5583 2503.92851
463.7696 2825.93064
463.9808 2695.76175
464.1919 2590.86479
464.4031 2595.86183
464.6143 2740.40746
464.8254 2576.59044
465.0365 2557.93345
465.2476 2664.07967
465.4587 2720.82888
465.6698 2551.85098
465.8809 2521.23385
466.0919 2548.38991
466.3030 2706.22687
466.5140 2673.84848
466.7250 2566.22772
466.9360 2625.65977
467.1469 2565.73621
467.3579 2472.88131
467.5688 2464.99663
467.7798 2571.42956
467.9907 2748.80414
468.2016 2562.27514
468.4125 2549.16814
468.6233 2454.71582
468.8342 2466.63500
469.0450 2727.34142
469.2559 2717.94125
469.4667 2702.00805
469.6775 2479.06617
469.8882 2513.59492
470.0990 2570.07790
470.3098 2721.50471
470.5205 2592.66700
470.7312 2719.04715
470.9419 2827.30278
471.1526 2668.13465
471.3633 2541.26298
471.5739 2596.72198
471.7846 2556.27459
471.9952 2416.60312
472.2058 2482.97779
472.4164 2456.96859
472.6270 2509.00747
472.8376 2540.03420
473.0481 2695.51599
473.2587 2725.70305
473.4692 2656.93226
473.6797 2600.26496
473.8902 2525.82130
474.1007 2448.63336
474.3111 2436.83706
474.5216 2401.55055
474.7320 2507.71725
474.9424 2633.29870
475.1528 2693.07891
475.3632 2525.75986
475.5736 2525.10451
475.7840 2486.27502
475.9943 2497.45693
476.2046 2543.65911
476.4149 2564.11831
476.6252 2651.30034
476.8355 2781.61260
477.0458 2780.38381
477.2561 2827.85573
477.4663 2705.79679
477.6765 2653.65551
477.8867 2604.48378
478.0969 2631.39409
478.3071 2644.70588
478.5173 2592.46220
478.7274 2663.71103
478.9375 2807.66276
479.1477 2798.81553
479.3578 2800.35151
479.5679 2891.48612
479.7779 2755.93107
479.9880 2698.95658
480.1980 2773.54360
480.4081 2834.40923
480.6181 2778.74544
480.8281 2666.51675
481.0381 2791.31997
481.2480 2837.27639
481.4580 2767.46113
481.6679 2757.75376
481.8778 2715.58608
482.0877 2779.99470
482.2976 2817.71828
482.5075 2848.17158
482.7174 2824.74282
482.9272 2827.93765
483.1371 2777.98769
483.3469 2804.30409
483.5567 2883.35568
483.7665 2907.37836
483.9762 2905.51470
484.1860 2879.05495
484.3957 2912.10916
484.6055 2851.63265
484.8152 2900.98869
485.0249 2942.17335
485.2346 2913.82946
485.4442 2931.36007
485.6539 2986.49139
485.8635 2980.10173
486.0732 2925.93295
486.2828 2959.66300
486.4924 2948.87020
486.7019 2941.59991
486.9115 2977.64416
487.1210 3026.50870
487.3306 3032.95980
487.5401 3069.27029
487.7496 3062.06144
487.9591 3143.18148
488.1686 3131.79477
488.3780 3094.21455
488.5875 3104.63871
488.7969 3119.89607
489.0063 3123.48002
489.2157 3165.62722
489.4251 3152.29494
489.6345 3168.37149
489.8438 3174.90451
490.0531 3167.81854
490.2625 3186.25026
490.4718 3165.68865
490.6811 3223.07274
490.8903 3259.34227
491.0996 3274.72251
491.3089 3270.60609
491.5181 3308.10440
491.7273 3312.42562
491.9365 3309.57894
492.1457 3351.11175
492.3549 3352.29957
492.5640 3357.27613
492.7732 3388.79437
492.9823 3391.25193
493.1914 3458.91682
493.4005 3463.21755
493.6096 3438.23234
493.8187 3440.71038
494.0277 3508.86678
494.2368 3502.04704
494.4458 3521.74850
494.6548 3568.48315
494.8638 3604.22020
495.0728 3560.18888
495.2817 3616.54897
495.4907 3586.36192
495.6996 3640.03918
495.9085 3644.81094
496.1174 3688.30980
496.3263 3681.01903
496.5352 3733.50847
496.7440 3732.95552
496.9529 3765.60014
497.1617 3791.97798
497.3705 3763.81841
497.5793 3839.22462
497.7881 3818.21246
497.9969 3870.96813
498.2056 3896.38343
498.4144 3914.77418
498.6231 3937.93671
498.8318 3957.39241
499.0405 4000.03112
499.2492 3937.56808
499.4578 4020.81801
499.6665 4035.89106
499.8751 4091.69820
500.0837 4115.57752
500.2923 4131.67455
500.5009 4114.45114
500.7095 4181.50163
500.9180 4170.29925
501.1266 4238.39421
501.3351 4240.91321
501.5436 4297.04803
501.7521 4280.09085
501.9606 4338.23268
502.1691 4354.35020
502.3775 4380.31844
502.5860 4409.80919
502.7944 4430.63703
503.0028 4482.10249
503.2112 4523.94249
503.4196 4494.67702
503.6279 4601.94962
503.8363 4525.25319
504.0446 4653.64035
504.2529 4671.94919
504.4612 4712.70377
504.6695 4717.82369
504.8778 4733.49065
505.0860 4777.41958
505.2943 4772.85261
505.5025 4873.20308
505.7107 4867.05917
505.9189 4937.61170
506.1271 4970.58399
506.3353 4984.18251
506.5434 4979.57458
506.7516 5047.23946
506.9597 5051.43780
507.1678 5093.70788
507.3759 5153.46760
507.5840 5142.49049
507.7920 5196.31111
508.0001 5199.56738
508.2081 5317.44846
508.4161 5297.23501
508.6241 5365.65765
508.8321 5353.20600
509.0401 5421.40335
509.2480 5463.12048
509.4560 5438.13526
509.6639 5525.70640
509.8718 5561.01338
510.0797 5585.19990
510.2876 5578.99455
510.4955 5746.90751
510.7033 5763.98757
510.9112 5827.51556
511.1190 5823.64490
511.3268 5815.98549
511.5346 5916.52028
511.7424 5919.28504
511.9501 5989.34605
512.1579 6027.31539
512.3656 6080.15298
512.5733 6055.45448
512.7810 6188.92060
512.9887 6237.53938
513.1964 6295.16922
513.4040 6302.07088
513.6117 6353.22914
513.8193 6403.56821
514.0269 6445.36725
514.2345 6510.45170
514.4421 6537.11625
514.6497 6572.64851
514.8572 6645.84291
515.0647 6653.58423
515.2723 6756.65850
515.4798 6777.77306
515.6873 6881.87131
515.8947 6821.76343
516.1022 6878.26688
516.3097 6932.76333
516.5171 7065.12355
516.7245 7056.11249
516.9319 7126.00966
517.1393 7183.92622
517.3467 7252.71749
517.5540 7285.25971
517.7614 7354.07146
517.9687 7332.26060
518.1760 7394.23213
518.3833 7472.56694
518.5906 7476.49904
518.7978 7628.37640
519.0051 7598.29174
519.2123 7734.72742
519.4196 7684.98225
519.6268 7792.62349
519.8340 7844.64190
520.0411 7934.71156
520.2483 8014.19323
520.4554 8029.86019
520.6626 8102.72692
520.8697 8136.88704
521.0768 8261.93601
521.2839 8294.08912
521.4909 8358.17006
521.6980 8516.68284
521.9050 8549.81898
522.1121 8627.31412
522.3191 8678.90245
522.5261 8730.10167
522.7331 8819.08591
522.9400 8969.07914
523.1470 8962.62804
523.3539 9018.68094
523.5608 9082.16798
523.7677 9142.09154
523.9746 9203.55108
524.1815 9276.64309
524.3884 9373.04098
524.5952 9331.38529
524.8020 9532.72110
525.0089 9454.55013
525.2157 9568.88823
525.4225 9646.56768
525.6292 9685.27429
525.8360 9749.76483
526.0427 9865.20883
526.2494 9934.59401
526.4562 10031.52437
526.6629 10006.68251
526.8695 10095.78963
527.0762 10248.40426
527.2829 10232.94210
527.4895 10468.74522
527.6961 10540.01453
527.9027 10596.55895
528.1093 10595.37112
528.3159 10658.98103
528.5224 10724.96659
528.7290 10949.56732
528.9355 10900.47751
529.1420 11140.78616
529.3485 11028.98755
529.5550 11215.39366
529.7615 11217.85123
529.9680 11379.49740
530.1744 11415.80789
530.3808 11534.56959
530.5872 11501.02387
530.7936 11609.46381
531.0000 11681.30655
531.2064 11776.45518
531.4127 11818.49998
531.6191 11947.56297
531.8254 11960.48565
532.0317 12095.63111
532.2380 12105.50232
532.4443 12297.13076
532.6505 12117.42150
532.8568 12364.05838
533.0630 12542.00638
533.2692 12520.66655
533.4754 12639.03914
533.6816 12810.67940
533.8878 12821.14452
534.0939 12988.72980
534.3001 12988.93460
534.5062 13072.59413
534.7123 13140.27949
534.9184 13155.88501
535.1245 13178.39219
535.3306 13288.20427
535.5366 13426.15545
535.7426 13557.94224
535.9487 13741.70647
536.1547 13577.66418
536.3607 13714.83712
536.5666 13740.23194
536.7726 13863.78589
536.9785 13947.11774
537.1845 14150.89063
537.3904 14061.92687
537.5963 14208.95055
537.8022 14294.28940
538.0080 14463.24682
538.2139 14504.47244
538.4197 14625.11828
538.6256 14627.86255
538.8314 14722.11008
539.0372 14761.82019
539.2430 14997.99195
539.4487 14731.46929
539.6545 15092.50570
539.8602 15016.52606
540.0659 15143.37725
540.2716 15417.39547
540.4773 15391.44770
540.6830 15636.93772
540.8887 15650.57719
541.0943 15557.96804
541.2999 15565.89368
541.5056 15628.45912
541.7112 15771.42782
541.9167 15704.43877
542.1223 15928.58895
542.3279 15966.70164
542.5334 16029.73812
542.7389 16279.56983
542.9444 16361.44762
543.1499 16424.44314
543.3554 16355.91810
543.5609 16556.80336
543.7663 16676.11802
543.9718 16528.62331
544.1772 16775.99745
544.3826 16735.98015
544.5880 17036.35572
544.7934 17025.70628
544.9987 17082.92653
545.2041 17382.85155
545.4094 17215.04100
545.6147 17295.60809
545.8200 17482.09612
546.0253 17532.16896
546.2306 17654.96516
546.4358 17570.52741
546.6411 17773.78831
546.8463 17728.75348
547.0515 18006.19180
547.2567 17994.23167
547.4619 18125.09687
547.6670 18245.31263
547.8722 18250.16632
548.0773 18526.13011
548.2824 18399.36084
548.4876 18405.32043
548.6926 18604.83355
548.8977 18755.33877
549.1028 18937.28032
549.3078 18928.92460
549.5129 18940.80282
549.7179 18983.58489
549.9229 19070.62356
550.1279 19012.62509
550.3328 19098.08682
550.5378 18960.29948
550.7427 19176.05299
550.9476 19221.02639
551.1526 18940.02459
551.3575 19307.30731
551.5623 19280.19220
551.7672 19195.93877
551.9720 19339.54234
552.1769 19316.19549
552.3817 19532.07188
552.5865 19356.43808
552.7913 19485.52155
552.9961 19361.51704
553.2008 19479.04997
553.4056 19704.01934
553.6103 19571.76151
553.8150 19828.90447
554.0197 19834.82310
554.2244 19746.90380
554.4291 19639.52880
554.6337 19852.94762
554.8384 19869.88433
555.0430 19837.66978
555.2476 19758.20859
555.4522 19633.77401
555.6568 19725.50253
555.8613 19801.56409
556.0659 19979.40969
556.2704 19722.57393
556.4750 19889.79058
556.6795 19921.61602
556.8839 19747.88683
557.0884 19954.67023
557.2929 19949.63223
557.4973 19838.79616
557.7018 19816.06371
557.9062 19789.03052
558.1106 19790.30026
558.3150 19747.35435
558.5193 19872.40333
558.7237 19856.79780
558.9280 19678.95220
559.1323 19638.46386
559.3367 19627.54818
559.5410 19629.24800
559.7452 19307.16395
559.9495 19651.36606
560.1537 19584.72516
560.3580 19522.52835
560.5622 19704.14221
560.7664 19688.98725
560.9706 19558.24492
561.1748 19673.19741
561.3789 19670.65792
561.5831 19603.30023
561.7872 19599.69581
561.9913 19609.95613
562.1954 19504.60862
562.3995 19568.34141
562.6036 19487.73336
562.8076 19278.67671
563.0117 19497.09257
563.2157 19416.56644
563.4197 19529.22520
563.6237 19434.56809
563.8277 19244.06603
564.0316 19062.34977
564.2356 19223.23819
564.4395 19184.77734
564.6434 19111.68533
564.8473 19245.06954
565.0512 19140.52073
565.2551 19145.23106
565.4590 19180.55852
565.6628 19175.02901
565.8666 19174.16886
566.0705 19072.40529
566.2743 18897.30397
566.4780 18874.91967
566.6818 18836.54073
566.8856 18935.31427
567.0893 18725.97090
567.2930 18714.35892
567.4967 18574.01162
567.7004 18623.51102
567.9041 18728.42846
568.1078 18606.28761
568.3114 18539.52383
568.5151 18545.03286
568.7187 18127.45203
568.9223 18344.45480
569.1259 18288.60669
569.3295 18454.47168
569.5330 18339.02768
569.7366 18198.74182
569.9401 18246.17278
570.1436 18186.26970
570.3471 18348.77602
570.5506 18223.25601
570.7541 18079.36573
570.9575 18089.68749
571.1609 17894.88470
571.3644 18005.92557
571.5678 17918.39538
571.7712 17962.75439
571.9746 17857.73455
572.1779 17645.27827
572.3813 17503.00588
572.5846 17709.01106
572.7879 17566.34955
572.9912 17716.40422
573.1945 17556.90842
573.3978 17392.55893
573.6010 17376.72813
573.8043 17508.92451
574.0075 17124.35694
574.2107 17137.87353
574.4139 16984.91075
574.6171 16970.10393
574.8203 16646.07432
575.0234 16723.97905
575.2266 16434.68298
575.4297 16436.42376
575.6328 16391.40940
575.8359 16324.87090
576.0390 15920.33563
576.2420 15939.52510
576.4451 15643.47074
576.6481 15705.93378
576.8512 15887.91629
577.0542 15439.65689
577.2571 15532.59371
577.4601 15390.46468
577.6631 15164.49180
577.8660 15057.56736
578.0689 14790.14360
578.2719 14795.38640
578.4748 14742.42592
578.6776 14518.60342
578.8805 14401.02953
579.0834 14249.43889
579.2862 14269.69330
579.4890 14261.15327
579.6918 14238.03170
579.8946 13850.26930
580.0974 13895.05838
580.3002 13715.08288
580.5029 13514.23859
580.7057 13571.45883
580.9084 13274.72864
581.1111 13334.52933
581.3138 13119.77933
581.5164 13010.19252
581.7191 12823.04913
581.9217 12752.96764
582.1244 12592.67313
582.3270 12468.40238
582.5296 12460.86586
582.7322 12410.03528
582.9347 12265.67396
583.1373 12101.40638
583.3398 12022.80534
583.5424 11916.47481
583.7449 11783.17252
583.9474 11671.02575
584.1498 11499.89748
584.3523 11528.69192
584.5548 11330.69430
584.7572 11233.60011
584.9596 11222.74587
585.1620 11222.07004
585.3644 10943.62821
585.5668 10822.04031
585.7691 10839.16132
585.9715 10675.26239
586.1738 10664.85870
586.3761 10519.86252
586.5784 10514.80403
586.7807 10455.63822
586.9830 10324.89589
587.1852 10176.17240
587.3875 10059.49962
587.5897 10075.00275
587.7919 9944.30138
587.9941 9770.22404
588.1963 9710.48479
588.3984 9610.97399
588.6006 9475.78757
588.8027 9535.07626
589.0048 9385.94318
589.2069 9327.08456
589.4090 9314.34619
589.6111 9267.38627
589.8131 9195.40017
590.0152 9161.46532
590.2172 8949.33672
590.4192 9020.85179
590.6212 8855.82647
590.8232 8701.49154
591.0252 8764.65090
591.2271 8680.43842
591.4291 8628.39954
591.6310 8519.50904
591.8329 8450.08290
592.0348 8412.64603
592.2367 8323.74371
592.4385 8289.52215
592.6404 8301.62565
592.8422 8237.40135
593.0440 8190.19567
593.2458 8188.04530
593.4476 8097.62748
593.6494 8059.67862
593.8512 8042.76240
594.0529 7975.69142
594.2546 7942.26857
594.4563 7873.86641
594.6580 7778.92258
594.8597 7721.98905
595.0614 7676.09407
595.2630 7693.44037
595.4647 7606.91369
595.6663 7507.42336
595.8679 7510.74107
596.0695 7515.51284
596.2711 7433.51217
596.4727 7385.30299
596.6742 7373.77292
596.8757 7366.33880
597.0773 7339.63328
597.2788 7227.54795
597.4802 7238.03355
597.6817 7257.61214
597.8832 7173.99357
598.0846 7151.03584
598.2860 7089.22815
598.4875 7017.48780
598.6889 7040.95752
598.8902 7011.22102
599.0916 6988.48856
599.2930 6931.43215
599.4943 6958.11719
599.6956 6920.10689
599.8969 6865.99955
600.0982 6838.70013
600.2995 6781.68468
600.5008 6842.95990
600.7020 6766.34539
600.9032 6772.89889
601.1045 6750.47363
601.3057 6699.80689
601.5068 6724.28011
601.7080 6734.25372
601.9092 6690.77535
602.1103 6750.96515
602.3115 6706.07367
602.5126 6720.45041
602.7137 6653.13368
602.9147 6649.11966
603.1158 6667.12131
603.3169 6677.19731
603.5179 6701.62958
603.7189 6643.24199
603.9199 6681.55949
604.1209 6641.60362
604.3219 6653.48183
604.5229 6681.14989
604.7238 6686.61797
604.9247 6686.47461
605.1257 6710.08769
605.3266 6730.15778
605.5275 6686.80229
605.7283 6735.89210
605.9292 6790.28615
606.1300 6677.32019
606.3309 6729.93251
606.5317 6766.75499
606.7325 6832.74054
606.9332 6869.33774
607.1340 6889.59215
607.3348 6856.74273
607.5355 6844.16820
607.7362 6953.55022
607.9369 6902.53531
608.1376 6972.94448
608.3383 7025.22912
608.5390 7065.22595
608.7396 7072.06617
608.9402 7146.44839
609.1409 7185.23692
609.3415 7143.66315
609.5421 7188.14504
609.7426 7234.01954
609.9432 7247.53613
610.1437 7244.68945
610.3443 7430.74741
610.5448 7403.63231
610.7453 7472.34166
610.9457 7485.83777
611.1462 7528.55840
611.3467 7570.09121
611.5471 7670.40072
611.7475 7632.57473
611.9479 7793.03309
612.1483 7706.75216
612.3487 7902.88613
612.5491 7860.63653
612.7494 8097.38172
612.9497 8019.21075
613.1501 8134.57283
613.3504 8150.19884
613.5506 8348.56509
613.7509 8334.29075
613.9512 8358.68205
614.1514 8408.98017
614.3516 8542.54869
614.5519 8546.41935
614.7521 8687.97495
614.9522 8716.85131
615.1524 8768.52156
615.3526 8879.39859
615.5527 9042.02779
615.7528 9022.08057
615.9529 9105.02331
616.1530 9276.88884
616.3531 9422.70422
616.5532 9533.94988
616.7532 9499.62592
616.9532 9582.81442
617.1533 9587.58618
617.3533 9715.03128
617.5532 9757.15800
617.7532 9884.02966
617.9532 9913.39753
618.1531 10138.28498
618.3530 10074.49075
618.5530 10236.62844
618.7528 10385.78200
618.9527 10488.54907
619.1526 10511.97784
619.3524 10543.16840
619.5523 10662.99505
619.7521 10770.65677
619.9519 10924.82786
620.1517 11048.83237
620.3515 11206.87411
620.5512 11289.07958
620.7510 11324.95999
620.9507 11421.82891
621.1504 11418.28593
621.3501 11594.14500
621.5498 11826.83521
621.7495 11849.19903
621.9492 12037.14113
622.1488 11966.58860
622.3484 12167.04378
622.5480 12223.28100
622.7476 12541.51487
622.9472 12442.53654
623.1468 12503.75032
623.3463 12993.72685
623.5459 13052.23732
623.7454 13062.06757
623.9449 13162.25420
624.1444 13315.05315
624.3439 13470.47349
624.5433 13503.52771
624.7428 13685.30542
624.9422 13690.75301
625.1416 13753.19558
625.3410 13834.02891
625.5404 14130.73862
625.7398 14197.21568
625.9391 14361.85189
626.1385 14284.09052
626.3378 14449.58687
626.5371 14821.47752
626.7364 14671.15661
626.9357 14815.78417
627.1350 14948.24678
627.3342 15081.50811
627.5335 15145.32282
627.7327 15338.73299
627.9319 15429.29416
628.1311 15855.39454
628.3303 15731.51291
628.5294 15819.47317
628.7286 16048.86615
628.9277 16289.03145
629.1268 16360.42364
629.3259 16578.02032
629.5250 16697.31450
629.7241 16803.11256
629.9231 16595.44853
630.1222 17074.01787
630.3212 17170.68199
630.5202 17133.49088
630.7192 17401.50855
630.9182 17396.61390
631.1171 17532.12800
631.3161 17657.60704
631.5150 17597.76540
631.7140 17863.67366
631.9129 18095.21700
632.1118 18265.73088
632.3106 18370.03393
632.5095 18507.92367
632.7083 18455.16799
632.9072 18665.74014
633.1060 18785.36199
633.3048 18709.44379
633.5036 18850.73316
633.7023 19115.69935
633.9011 19455.74408
634.0998 19724.35567
634.2986 19593.18327
634.4973 19876.74502
634.6960 19850.08047
634.8947 19984.38626
635.0933 20064.09320
635.2920 20213.73828
635.4906 20177.42779
635.6892 20498.24210
635.8878 20652.90470
636.0864 20914.59414
636.2850 20784.34333
636.4836 20947.46404
636.6821 20941.77069
636.8806 21284.94881
637.0792 21450.97764
637.2777 21515.42722
637.4761 21515.85729
637.6746 21723.93091
637.8731 22091.58226
638.0715 21960.32795
638.2699 22203.68807
638.4683 22235.77974
638.6667 22171.39161
638.8651 22377.45822
639.0635 22576.43887
639.2618 22691.98526
639.4602 22823.09622
639.6585 22771.67173
639.8568 23114.50170
640.0551 23135.51385
640.2534 23129.30851
640.4516 23438.63371
640.6499 23516.27220
640.8481 23895.67890
641.0463 23970.28640
641.2445 24248.27768
641.4427 24100.57817
641.6409 24250.10037
641.8390 24302.93796
642.0372 24538.14717
642.2353 24492.96898
642.4334 24571.54954
642.6315 24775.60915
642.8296 24765.84034
643.0277 24702.74242
643.2257 25340.17269
643.4237 25329.83045
643.6218 25232.20378
643.8198 25424.75380
644.0178 25616.50512
644.2157 25514.96683
644.4137 25638.56174
644.6116 26411.28083
644.8096 26543.00618
645.0075 26086.26819
645.2054 26428.31993
645.4033 26385.23067
645.6011 26419.26791
645.7990 26412.10002
645.9968 26796.70855
646.1947 26908.01565
646.3925 27153.97670
646.5903 26909.67450
