# Averages = 100
# wavelength [µm]	intensity
446.8250 14.33578
447.0374 36746.70328
447.2498 1230.87018
447.4621 1219.77019
447.6745 1223.23125
447.8868 1236.99360
448.0992 1242.25688
448.3115 1231.30025
448.5238 1251.71850
448.7360 1234.26981
448.9483 1245.63603
449.1606 1240.92570
449.3728 1264.98934
449.5850 1233.67590
449.7972 1245.39028
450.0094 1233.57350
450.2216 1252.51721
450.4337 1246.90577
450.6459 1660.84122
450.8580 1983.90829
451.0701 2009.32358
451.2822 2027.63242
451.4943 2020.58741
451.7064 2010.81860
451.9184 1998.32599
452.1305 2059.76505
452.3425 2164.15002
452.5545 2099.02461
452.7665 2081.94455
452.9785 2202.95903
453.1905 2228.94775
453.4024 2161.46718
453.6143 2250.38998
453.8263 2232.90033
454.0382 2344.73990
454.2501 2210.37267
454.4619 2194.60331
454.6738 2320.47147
454.8856 2382.97548
455.0975 2239.51527
455.3093 2255.81710
455.5211 2314.24565
455.7329 2285.24641
455.9446 2325.79619
456.1564 2328.92958
456.3681 2384.61385
456.5798 2450.49701
456.7916 2386.02695
457.0033 2379.04338
457.2149 2344.49415
457.4266 2381.11183
457.6382 2438.92598
457.8499 2398.47860
458.0615 2512.18183
458.2731 2428.15367
458.4847 2505.60785
458.6963 2523.85525
458.9078 2548.08272
459.1194 2696.86765
459.3309 2716.97870
459.5424 2558.30208
459.7539 2464.15696
459.9654 2520.04603
460.1769 2591.68397
460.3883 2574.64487
460.5998 2452.66785
460.8112 2423.05423
461.0226 2498.31708
461.2340 2598.21699
461.4454 2549.96685
461.6567 2496.90398
461.8681 2476.15806
462.0794 2449.00199
462.2907 2545.50228
462.5020 2638.11143
462.7133 2717.16302
462.9246 2778.92976
463.1359 2633.07342
463.3471 2408.34981
463.5583 2462.64146
463.7696 2780.42477
463.9808 2651.56658
464.1919 2554.10375
464.4031 2555.02533
464.6143 2690.70326
464.8254 2529.44620
465.0365 2516.29824
465.2476 2619.45443
465.4587 2657.40329
465.6698 2515.25378
465.8809 2485.74255
466.0919 2500.11929
466.3030 2661.06915
466.5140 2635.71530
466.7250 2528.79085
466.9360 2583.04155
467.1469 2529.97867
467.3579 2424.22157
467.5688 2423.66862
467.7798 2525.82130
467.9907 2696.27374
468.2016 2518.18237
468.4125 2507.61486
468.6233 2418.09814
468.8342 2433.92894
469.0450 2671.34996
469.2559 2676.44940
469.4667 2647.75736
469.6775 2454.32671
469.8882 2488.32299
470.0990 2525.88274
470.3098 2678.59977
470.5205 2546.69010
470.7312 2684.51840
470.9419 2774.15799
471.1526 2624.90203
471.3633 2504.72722
471.5739 2549.29102
471.7846 2523.83477
471.9952 2378.73618
472.2058 2437.51289
472.4164 2415.43578
472.6270 2463.31729
472.8376 2498.13276
473.0481 2643.16991
473.2587 2685.99293
473.4692 2615.58377
473.6797 2552.64969
473.8902 2476.34237
474.1007 2405.15498
474.3111 2397.67989
474.5216 2357.23251
474.7320 2459.97910
474.9424 2586.80981
475.1528 2638.93061
475.3632 2476.79293
475.5736 2476.79293
475.7840 2439.78613
475.9943 2459.26231
476.2046 2489.34698
476.4149 2512.09991
476.6252 2592.64652
476.8355 2718.78091
477.0458 2738.64621
477.2561 2766.35523
477.4663 2660.94628
477.6765 2597.02917
477.8867 2555.86500
478.0969 2577.36867
478.3071 2587.91571
478.5173 2538.21151
478.7274 2611.97934
478.9375 2757.63088
479.1477 2750.74971
479.3578 2747.49344
479.5679 2831.31680
479.7779 2695.39311
479.9880 2650.33780
480.1980 2713.59955
480.4081 2786.75300
480.6181 2718.35084
480.8281 2622.38303
481.0381 2750.81115
481.2480 2778.64304
481.4580 2705.38720
481.6679 2706.10399
481.8778 2659.65606
482.0877 2726.19456
482.2976 2752.34712
482.5075 2798.16018
482.7174 2767.58401
482.9272 2764.57350
483.1371 2708.31579
483.3469 2743.62278
483.5567 2819.04946
483.7665 2834.36827
483.9762 2841.63856
484.1860 2809.64929
484.3957 2842.31439
484.6055 2788.32993
484.8152 2833.93820
485.0249 2864.35053
485.2346 2836.64152
485.4442 2854.60220
485.6539 2913.48130
485.8635 2916.16414
486.0732 2847.72103
486.2828 2883.82672
486.4924 2897.22043
486.7019 2866.64426
486.9115 2915.71359
487.1210 2950.05802
487.3306 2958.20894
487.5401 2992.65578
487.7496 2992.00043
487.9591 3057.18727
488.1686 3058.23173
488.3780 3008.65041
488.5875 3033.00076
488.7969 3048.54484
489.0063 3029.84689
489.2157 3090.85588
489.4251 3071.05202
489.6345 3080.08356
489.8438 3092.20754
490.0531 3077.50312
490.2625 3115.59534
490.4718 3092.78097
490.6811 3128.96857
490.8903 3173.55285
491.0996 3190.85819
491.3089 3183.36263
491.5181 3212.19803
491.7273 3227.59875
491.9365 3217.52274
492.1457 3256.96662
492.3549 3262.68045
492.5640 3256.33175
492.7732 3295.14076
492.9823 3304.11086
493.1914 3365.03793
493.4005 3361.67926
493.6096 3338.61914
493.8187 3334.37984
494.0277 3410.54380
494.2368 3397.96927
494.4458 3434.81223
494.6548 3464.09818
494.8638 3510.38228
495.0728 3462.66460
495.2817 3496.10793
495.4907 3465.24504
495.6996 3525.51676
495.9085 3521.54370
496.1174 3578.21100
496.3263 3561.49957
496.5352 3603.31910
496.7440 3613.59990
496.9529 3648.57921
497.1617 3660.47790
497.3705 3654.57975
497.5793 3722.36752
497.7881 3683.33324
497.9969 3743.19536
498.2056 3759.88631
498.4144 3780.50935
498.6231 3796.44255
498.8318 3825.48275
499.0405 3849.60782
499.2492 3803.44660
499.4578 3892.79948
499.6665 3891.73454
499.8751 3948.44279
500.0837 3968.84056
500.2923 3969.39351
500.5009 3964.47839
500.7095 4015.08369
500.9180 4035.01043
501.1266 4081.58124
501.3351 4099.80816
501.5436 4135.42234
501.7521 4122.37678
501.9606 4175.37821
502.1691 4185.22894
502.3775 4195.42782
502.5860 4241.99863
502.7944 4250.64106
503.0028 4315.17255
503.2112 4338.72420
503.4196 4325.08472
503.6279 4402.88706
503.8363 4369.56660
504.0446 4455.56081
504.2529 4476.90065
504.4612 4509.50431
504.6695 4530.80318
504.8778 4535.37015
505.0860 4565.80297
505.2943 4568.21957
505.5025 4654.48002
505.7107 4656.17983
505.9189 4723.55800
506.1271 4741.90780
506.3353 4769.96497
506.5434 4758.31203
506.7516 4834.92654
506.9597 4837.42507
507.1678 4871.01175
507.3759 4910.92666
507.5840 4906.62593
507.7920 4932.36890
508.0001 4944.59527
508.2081 5077.18077
508.4161 5022.23377
508.6241 5099.52411
508.8321 5091.29127
509.0401 5152.56650
509.2480 5190.04432
509.4560 5161.92571
509.6639 5244.74557
509.8718 5266.84315
510.0797 5294.01970
510.2876 5288.28539
510.4955 5443.64430
510.7033 5461.78930
510.9112 5512.64036
511.1190 5521.61047
511.3268 5490.33798
511.5346 5594.66151
511.7424 5603.71353
511.9501 5671.64466
512.1579 5710.88374
512.3656 5747.11230
512.5733 5738.12172
512.7810 5850.51425
512.9887 5892.12897
513.1964 5927.06732
513.4040 5928.43946
513.6117 5974.00676
513.8193 6009.80526
514.0269 6044.78456
514.2345 6121.80867
514.4421 6130.47157
514.6497 6168.56379
514.8572 6226.35747
515.0647 6226.84898
515.2723 6324.78285
515.4798 6342.02675
515.6873 6420.99642
515.8947 6410.26507
516.1022 6446.73939
516.3097 6472.31852
516.5171 6577.87083
516.7245 6569.41272
516.9319 6623.66341
517.1393 6675.08790
517.3467 6749.40869
517.5540 6767.08266
517.7614 6835.46434
517.9687 6789.87655
518.1760 6840.23610
518.3833 6941.32384
518.5906 6940.81185
518.7978 7056.48112
519.0051 7042.96453
519.2123 7151.05632
519.4196 7093.85655
519.6268 7183.37327
519.8340 7220.09335
520.0411 7298.16192
520.2483 7373.85484
520.4554 7379.79395
520.6626 7447.76603
520.8697 7468.90107
521.0768 7586.16776
521.2839 7616.17050
521.4909 7665.30128
521.6980 7792.43917
521.9050 7825.59579
522.1121 7866.14557
522.3191 7896.31215
522.5261 7945.87299
522.7331 8034.22237
522.9400 8146.24626
523.1470 8150.95658
523.3539 8184.62519
523.5608 8247.88695
523.7677 8261.36258
523.9746 8315.59279
524.1815 8413.85433
524.3884 8463.94765
524.5952 8425.34344
524.8020 8588.70990
525.0089 8509.94503
525.2157 8626.02390
525.4225 8670.09618
525.6292 8682.50687
525.8360 8746.60830
526.0427 8829.55103
526.2494 8873.78715
526.4562 8960.94870
526.6629 8909.50373
526.8695 8964.14354
527.0762 9080.30432
527.2829 9103.65117
527.4895 9275.10711
527.6961 9340.17108
527.9027 9379.18488
528.1093 9393.62306
528.3159 9426.92303
528.5224 9445.23187
528.7290 9630.55257
528.9355 9576.46571
529.1420 9767.86887
529.3485 9664.48741
529.5550 9826.44078
529.7615 9783.49487
529.9680 9915.69126
530.1744 9961.48384
530.3808 10014.38287
530.5872 9955.33993
530.7936 10064.80386
531.0000 10117.08850
531.2064 10151.80157
531.4127 10195.05467
531.6191 10285.49297
531.8254 10293.15238
532.0317 10369.11154
532.2380 10334.56230
532.4443 10509.13116
532.6505 10355.79974
532.8568 10545.70788
533.0630 10661.58195
533.2692 10627.95431
533.4754 10677.20796
533.6816 10825.17370
533.8878 10784.66488
534.0939 10914.87473
534.3001 10879.85446
534.5062 10932.05719
534.7123 10944.03780
534.9184 10964.59941
535.1245 10979.03759
535.3306 11024.54346
535.5366 11107.40427
535.7426 11178.61215
535.9487 11320.35206
536.1547 11181.04923
536.3607 11243.04124
536.5666 11253.79308
536.7726 11301.96130
536.9785 11358.91531
537.1845 11484.49676
537.3904 11419.51471
537.5963 11507.14729
537.8022 11526.72587
538.0080 11617.10273
538.2139 11630.74221
538.4197 11703.44510
538.6256 11657.12004
538.8314 11728.65559
539.0372 11724.60061
539.2430 11869.39200
539.4487 11642.45659
539.6545 11898.26836
539.8602 11784.29890
540.0659 11845.24645
540.2716 12039.66013
540.4773 11960.95669
540.6830 12112.21966
540.8887 12065.93557
541.0943 11982.60372
541.2999 11980.90390
541.5056 11997.94300
541.7112 12063.53944
541.9167 11977.93435
542.1223 12111.19568
542.3279 12088.91378
542.5334 12097.14661
542.7389 12202.80132
542.9444 12253.11991
543.1499 12264.99813
543.3554 12175.52237
543.5609 12270.09757
543.7663 12340.38386
543.9718 12146.48218
544.1772 12282.26250
544.3826 12196.90317
544.5880 12379.86870
544.7934 12334.19899
544.9987 12309.23425
545.2041 12447.55406
545.4094 12319.57650
545.6147 12302.82411
545.8200 12378.37368
546.0253 12342.06319
546.2306 12400.98325
546.4358 12267.64001
546.6411 12370.73475
546.8463 12286.84995
547.0515 12412.45188
547.2567 12341.94031
547.4619 12383.06353
547.6670 12413.57826
547.8722 12342.55470
548.0773 12473.82950
548.2824 12322.01358
548.4876 12282.16011
548.6926 12375.36316
548.8977 12378.14840
549.1028 12418.69818
549.3078 12322.58701
549.5129 12292.89146
549.7179 12262.80680
549.9229 12256.04850
550.1279 12170.34101
550.3328 12176.17772
550.5378 11968.18602
550.7427 12062.47450
550.9476 12022.04760
551.1526 11811.70072
551.3575 11951.22884
551.5623 11872.73019
551.7672 11705.98458
551.9720 11721.07811
552.1769 11644.62743
552.3817 11701.72480
552.5865 11516.81370
552.7913 11496.43642
552.9961 11382.03688
553.2008 11352.62805
553.4056 11408.39424
553.6103 11271.95856
553.8150 11341.50758
554.0197 11280.04804
554.2244 11168.88429
554.4291 11057.20856
554.6337 11094.64543
554.8384 11013.19771
555.0430 10898.40906
555.2476 10787.51155
555.4522 10677.71995
555.6568 10677.96570
555.8613 10618.39029
556.0659 10644.23566
556.2704 10435.05613
556.4750 10446.54524
556.6795 10383.65212
556.8839 10224.97550
557.0884 10240.45814
557.2929 10165.19529
557.4973 10039.36809
557.7018 9979.99748
557.9062 9909.69071
558.1106 9816.40573
558.3150 9690.94717
558.5193 9719.06578
558.7237 9582.73250
558.9280 9471.63019
559.1323 9385.98414
559.3367 9315.67737
559.5410 9237.60880
559.7452 9053.10730
559.9495 9111.39249
560.1537 9007.90863
560.3580 8885.21482
560.5622 8922.32401
560.7664 8832.82778
560.9706 8703.10944
561.1748 8678.32902
561.3789 8613.71560
561.5831 8532.59556
561.7872 8439.82258
561.9913 8408.91873
562.1954 8306.09022
562.3995 8271.39763
562.6036 8167.34033
562.8076 8034.71388
563.0117 8047.45224
563.2157 7928.67006
563.4197 7899.42506
563.6237 7826.57881
563.8277 7694.40291
564.0316 7577.23862
564.2356 7560.99823
564.4395 7495.89330
564.6434 7431.32085
564.8473 7408.85463
565.0512 7309.30287
565.2551 7260.70457
565.4590 7238.66842
565.6628 7165.10539
565.8666 7078.23055
566.0705 7002.57859
566.2743 6932.55854
566.4780 6856.08738
566.6818 6795.75422
566.8856 6792.12932
567.0893 6699.06962
567.2930 6631.75289
567.4967 6560.19686
567.7004 6529.47733
567.9041 6516.86184
568.1078 6436.90914
568.3114 6375.71583
568.5151 6367.11436
568.7187 6215.83091
568.9223 6229.71614
569.1259 6196.47761
569.3295 6200.86026
569.5330 6140.67046
569.7366 6088.77493
569.9401 6075.99561
570.1436 6042.59324
570.3471 6049.10578
570.5506 5991.92649
570.7541 5936.44702
570.9575 5936.01694
571.1609 5841.29839
571.3644 5847.36038
571.5678 5832.53308
571.7712 5799.25359
571.9746 5767.30528
572.1779 5702.71234
572.3813 5680.79908
572.5846 5710.31031
572.7879 5692.63634
572.9912 5693.96752
573.1945 5665.84890
573.3978 5609.46832
573.6010 5628.53491
573.8043 5652.57807
574.0075 5585.83477
574.2107 5588.10801
574.4139 5546.32945
574.6171 5543.11414
574.8203 5506.10734
575.0234 5541.66008
575.2266 5487.14315
575.4297 5477.29242
575.6328 5475.85884
575.8359 5475.24445
576.0390 5394.47257
576.2420 5439.34356
576.4451 5388.69729
576.6481 5439.48692
576.8512 5534.08260
577.0542 5437.41847
577.2571 5518.25180
577.4601 5501.02838
577.6631 5481.14260
577.8660 5471.55811
578.0689 5440.51090
578.2719 5455.99355
578.4748 5508.40107
578.6776 5499.63576
578.8805 5536.88831
579.0834 5520.99608
579.2862 5586.06004
579.4890 5637.42310
579.6918 5705.80477
579.8946 5634.22827
580.0974 5702.54850
580.3002 5736.09423
580.5029 5708.52857
580.7057 5763.57797
580.9084 5732.81748
581.1111 5837.42773
581.3138 5815.71926
581.5164 5809.98495
581.7191 5851.10816
581.9217 5899.23542
582.1244 5911.40036
582.3270 5940.09240
582.5296 6024.73495
582.7322 6083.53213
582.9347 6119.12583
583.1373 6083.30685
583.3398 6158.97930
583.5424 6185.25474
583.7449 6237.33458
583.9474 6234.44695
584.1498 6270.22496
584.3523 6370.59591
584.5548 6386.44719
584.7572 6423.18775
584.9596 6501.66591
585.1620 6595.68816
585.3644 6565.33726
585.5668 6634.72244
585.7691 6709.39138
585.9715 6712.62717
586.1738 6829.40235
586.3761 6867.94512
586.5784 6997.11051
586.7807 7013.33042
586.9830 7072.20953
587.1852 7110.81374
587.3875 7160.35410
587.5897 7281.94200
587.7919 7300.18941
587.9941 7330.68366
588.1963 7397.61128
588.3984 7431.83284
588.6006 7442.40036
588.8027 7625.59116
589.0048 7654.93855
589.2069 7718.75326
589.4090 7837.10537
589.6111 7889.67673
589.8131 7984.31337
590.0152 8097.87323
590.2172 8080.62934
590.4192 8237.31943
590.6212 8232.79342
590.8232 8244.79451
591.0252 8416.22998
591.2271 8507.11883
591.4291 8587.62448
591.6310 8641.24030
591.8329 8734.34096
592.0348 8837.21043
592.2367 8902.54064
592.4385 9086.32535
592.6404 9241.60234
592.8422 9326.47017
593.0440 9473.04329
593.2458 9580.45925
593.4476 9644.39684
593.6494 9750.87073
593.8512 9905.67669
594.0529 9994.64045
594.2546 10093.04535
594.4563 10149.34401
594.6580 10189.97571
594.8597 10290.46954
595.0614 10411.23825
595.2630 10529.01694
595.4647 10676.83932
595.6663 10719.43707
595.8679 10890.85206
596.0695 11104.88527
596.2711 11134.13026
596.4727 11221.98812
596.6742 11391.84665
596.8757 11552.77604
597.0773 11690.01042
597.2788 11702.17536
597.4802 11900.37777
597.6817 12035.89186
597.8832 12032.38984
598.0846 12180.21222
598.2860 12256.23282
598.4875 12267.84480
598.6889 12563.18238
598.8902 12658.08525
599.0916 12814.16095
599.2930 12839.59672
599.4943 13045.47902
599.6956 13167.64035
599.8969 13241.03955
600.0982 13264.38640
600.2995 13350.91308
600.5008 13655.93754
600.7020 13720.28472
600.9032 13879.86245
601.1045 14019.18576
601.3057 14012.12027
601.5068 14227.23891
601.7080 14393.45205
601.9092 14355.60559
602.1103 14719.26340
602.3115 14788.54618
602.5126 14867.57730
602.7137 14956.17242
602.9147 15121.48446
603.1158 15273.09559
603.3169 15461.42679
603.5179 15610.92851
603.7189 15644.82240
603.9199 15802.45455
604.1209 15852.09731
604.3219 16020.03075
604.5229 16238.36470
604.7238 16259.41782
604.9247 16420.90015
605.1257 16575.41940
605.3266 16685.06764
605.5275 16747.44877
605.7283 16909.01302
605.9292 17123.90639
606.1300 16925.99069
606.3309 17127.57225
606.5317 17351.21044
606.7325 17615.91040
606.9332 17727.05366
607.1340 17859.43436
607.3348 17887.79873
607.5355 17965.06859
607.7362 18199.99109
607.9369 18137.42564
608.1376 18420.49588
608.3383 18513.51462
608.5390 18707.74398
608.7396 18767.11459
608.9402 19063.66047
609.1409 19109.98552
609.3415 19028.37397
609.5421 19171.62938
609.7426 19328.87242
609.9432 19452.91789
610.1437 19407.41202
610.3443 19926.46970
610.5448 19914.01805
610.7453 20115.23098
610.9457 20062.16811
611.1462 20201.28663
611.3467 20243.51574
611.5471 20567.50440
611.7475 20452.71575
611.9479 20915.51573
612.1483 20674.22405
612.3487 21136.26628
612.5491 20942.01645
612.7494 21510.10250
612.9497 21275.61008
613.1501 21553.60135
613.3504 21581.14653
613.5506 22029.18066
613.7509 21911.03334
613.9512 21858.44150
614.1514 21950.92777
614.3516 22313.07008
614.5519 22268.05573
614.7521 22519.34150
614.9522 22511.37490
615.1524 22588.78812
615.3526 22912.53102
615.5527 23230.78536
615.7528 23022.32262
615.9529 23131.99135
616.1530 23437.17965
616.3531 23757.23621
616.5532 23909.99420
616.7532 23626.14573
616.9532 23804.11421
617.1533 23738.59969
617.3533 23989.57826
617.5532 23988.04229
617.7532 24164.24952
617.9532 24046.94187
618.1531 24598.64417
618.3530 24252.66033
618.5530 24552.76967
618.7528 24766.39329
618.9527 24927.05644
619.1526 24866.64136
619.3524 24847.61573
619.5523 24976.37152
619.7521 25147.13116
619.9519 25323.21551
620.1517 25457.17315
620.3515 25671.30876
620.5512 25780.73173
620.7510 25776.16476
620.9507 25749.33637
621.1504 25698.48531
621.3501 25953.41646
621.5498 26315.27205
621.7495 26300.42428
621.9492 26376.38344
622.1488 26170.37827
622.3484 26324.93847
622.5480 26379.31204
622.7476 27008.96003
622.9472 26597.85078
623.1468 26627.71017
623.3463 27489.45446
623.5459 27529.86088
623.7454 27317.87564
623.9449 27520.48118
624.1444 27674.40652
624.3439 27923.29616
624.5433 27776.68208
624.7428 27948.85481
624.9422 27844.08073
625.1416 27958.35738
625.3410 27983.09685
625.5404 28291.97149
625.7398 28223.67173
625.9391 28405.30608
626.1385 28125.57403
626.3378 28225.14627
626.5371 28838.69723
626.7364 28442.39480
626.9357 28622.41125
627.1350 28668.22431
627.3342 28768.88198
627.5335 28712.37852
627.7327 28920.47262
627.9319 28908.75824
628.1311 29639.43253
628.3303 29139.23664
628.5294 29232.89025
628.7286 29547.80641
628.9277 29918.87787
629.1268 29882.79266
629.3259 30223.88185
629.5250 30254.99050
629.7241 30221.48573
629.9231 29726.88080
630.1222 30357.47085
630.3212 30377.37711
630.5202 30138.66587
630.7192 30407.19554
630.9182 30264.90267
631.1171 30432.81562
631.3161 30410.96380
631.5150 30157.56863
631.7140 30563.76275
631.9129 30832.08761
632.1118 31029.63468
632.3106 31010.26089
632.5095 31097.21765
632.7083 30837.86288
632.9072 30963.81296
633.1060 31125.80729
633.3048 30850.84701
633.5036 30952.26242
633.7023 31229.70075
633.9011 31613.61297
634.0998 31872.84485
634.2986 31549.12243
634.4973 31943.62265
634.6960 31716.07284
634.8947 31805.42572
635.0933 31832.31555
635.2920 31973.05196
635.4906 31751.72798
635.6892 32090.70777
635.8878 32343.69335
636.0864 32542.10056
636.2850 32208.99844
636.4836 32347.11345
636.6821 32232.83680
636.8806 32579.27119
637.0792 32730.45225
637.2777 32698.21722
637.4761 32620.66064
637.6746 32770.01900
637.8731 33248.81362
638.0715 32890.17333
638.2699 33135.84766
638.4683 33054.33850
638.6667 32914.78991
638.8651 33071.60288
639.0635 33290.01875
639.2618 33256.20678
639.4602 33398.43821
639.6585 33199.86716
639.8568 33495.57337
640.0551 33336.69195
640.2534 33264.89017
640.4516 33571.47109
640.6499 33702.33630
640.8481 34103.39002
641.0463 34093.02729
641.2445 34349.55586
641.4427 34047.62383
641.6409 34126.96214
641.8390 34103.34906
642.0372 34377.92023
642.2353 34262.47623
642.4334 34205.54270
642.6315 34459.20411
642.8296 34291.90554
643.0277 34138.36932
643.2257 34909.69579
643.4237 34795.35770
643.6218 34593.48942
643.8198 34657.95947
644.0178 34834.53534
644.2157 34639.26152
644.4137 34714.09430
644.6116 35580.75371
644.8096 35694.70269
645.0075 35004.98778
645.2054 35436.06472
645.4033 35243.61710
645.6011 35161.47307
645.7990 35180.86733
645.9968 35522.07941
646.1947 35531.43862
646.3925 35758.06685
646.5903 35421.33983
646.7881 35786.53361
646.9858 35488.59512
