# Averages = 100
# wavelength [µm]	intensity
446.8250 14.33578
447.0374 36746.70328
447.2498 1231.58697
447.4621 1227.49103
447.6745 1232.05800
447.8868 1242.54360
448.0992 1242.13401
448.3115 1230.84970
448.5238 1259.86942
448.7360 1240.18844
448.9483 1246.74194
449.1606 1243.64950
449.3728 1264.47735
449.5850 1236.82977
449.7972 1247.25393
450.0094 1241.39674
450.2216 1260.07421
450.4337 1247.72496
450.6459 1698.36000
450.8580 2031.50308
451.0701 2056.83645
451.2822 2082.74326
451.4943 2072.81061
451.7064 2051.77797
451.9184 2049.58665
452.1305 2113.99526
452.3425 2219.71141
452.5545 2154.85224
452.7665 2137.07587
452.9785 2255.98094
453.1905 2291.82039
453.4024 2222.39425
453.6143 2313.34454
453.8263 2298.00525
454.0382 2409.14852
454.2501 2268.30971
454.4619 2255.44846
454.6738 2395.38617
454.8856 2455.35069
455.0975 2310.27259
455.3093 2304.64067
455.5211 2393.85019
455.7329 2350.65853
455.9446 2399.01107
456.1564 2388.01348
456.3681 2453.58944
456.5798 2521.15193
456.7916 2467.74090
457.0033 2458.52505
457.2149 2415.98873
457.4266 2450.70180
457.6382 2500.67224
457.8499 2467.00364
458.0615 2587.32180
458.2731 2496.69918
458.4847 2599.67105
458.6963 2611.99982
458.9078 2630.06291
459.1194 2787.77698
459.3309 2811.18526
459.5424 2646.46714
459.7539 2548.45135
459.9654 2610.95536
460.1769 2675.65069
460.3883 2665.69756
460.5998 2517.36319
460.8112 2494.71265
461.0226 2583.77881
461.2340 2686.01341
461.4454 2625.94649
461.6567 2579.66240
461.8681 2570.03694
462.0794 2521.17241
462.2907 2634.56844
462.5020 2718.24844
462.7133 2814.31866
462.9246 2884.01103
463.1359 2716.36431
463.3471 2478.49274
463.5583 2546.03475
463.7696 2878.17432
463.9808 2745.62978
464.1919 2639.25829
464.4031 2634.48652
464.6143 2789.08768
464.8254 2628.09686
465.0365 2609.54226
465.2476 2716.46671
465.4587 2769.30430
465.6698 2598.54467
465.8809 2559.46942
466.0919 2596.96773
466.3030 2758.73678
466.5140 2726.84991
466.7250 2610.62768
466.9360 2675.95789
467.1469 2624.02140
467.3579 2522.19639
467.5688 2512.59142
467.7798 2613.78156
467.9907 2798.63122
468.2016 2607.16662
468.4125 2599.91681
468.6233 2497.80509
468.8342 2515.41762
469.0450 2784.45927
469.2559 2760.60044
469.4667 2751.52793
469.6775 2528.44270
469.8882 2570.28270
470.0990 2610.93488
470.3098 2769.18143
470.5205 2651.30034
470.7312 2778.88880
470.9419 2890.35974
471.1526 2718.92427
471.3633 2604.09466
471.5739 2651.27986
471.7846 2627.81014
471.9952 2463.37873
472.2058 2519.94363
472.4164 2503.17076
472.6270 2550.49932
472.8376 2600.69504
473.0481 2738.78957
473.2587 2788.55521
473.4692 2709.74937
473.6797 2666.59867
473.8902 2571.28620
474.1007 2496.86302
474.3111 2484.90288
474.5216 2434.42045
474.7320 2542.08217
474.9424 2688.32762
475.1528 2762.25929
475.3632 2573.39561
475.5736 2575.95557
475.7840 2523.46613
475.9943 2545.19508
476.2046 2590.86479
476.4149 2616.28008
476.6252 2706.00159
476.8355 2838.56661
477.0458 2849.13413
477.2561 2889.29479
477.4663 2758.36815
477.6765 2700.51303
477.8867 2658.81639
478.0969 2690.62134
478.3071 2680.62726
478.5173 2650.25588
478.7274 2718.26892
478.9375 2866.86953
479.1477 2875.88060
479.3578 2861.07378
479.5679 2950.20138
479.7779 2814.48249
479.9880 2754.29269
480.1980 2843.52269
480.4081 2913.97282
480.6181 2840.45074
480.8281 2737.23311
481.0381 2855.46235
481.2480 2901.41877
481.4580 2820.23729
481.6679 2822.67437
481.8778 2770.61500
482.0877 2841.92528
482.2976 2875.40956
482.5075 2925.25712
482.7174 2888.35273
482.9272 2897.93722
483.1371 2838.23893
483.3469 2859.21013
483.5567 2937.91357
483.7665 2973.99878
483.9762 2967.79343
484.1860 2934.00195
484.3957 2977.74656
484.6055 2929.66026
484.8152 2963.98421
485.0249 3014.09801
485.2346 2987.29010
485.4442 3007.42163
485.6539 3060.99649
485.8635 3069.76180
486.0732 2993.49544
486.2828 3028.06515
486.4924 3029.62161
486.7019 3014.05705
486.9115 3056.59336
487.1210 3100.19461
487.3306 3111.17173
487.5401 3154.89586
487.7496 3142.58757
487.9591 3230.09727
488.1686 3206.27940
488.3780 3176.87056
488.5875 3196.96114
488.7969 3200.56556
489.0063 3205.19397
489.2157 3260.96016
489.4251 3230.71166
489.6345 3264.52363
489.8438 3266.05960
490.0531 3246.11239
490.2625 3276.60664
490.4718 3257.02806
490.6811 3315.62045
490.8903 3345.37743
491.0996 3362.15030
491.3089 3360.45048
491.5181 3403.66262
491.7273 3416.31907
491.9365 3406.85745
492.1457 3458.65058
492.3549 3444.43768
492.5640 3450.11055
492.7732 3493.40461
492.9823 3489.73875
493.1914 3578.98923
493.4005 3558.42762
493.6096 3541.59332
493.8187 3541.28612
494.0277 3619.17038
494.2368 3611.69529
494.4458 3642.96777
494.6548 3682.06350
494.8638 3716.53081
495.0728 3653.06426
495.2817 3731.13283
495.4907 3700.49521
495.6996 3751.79683
495.9085 3761.36085
496.1174 3806.31376
496.3263 3794.04643
496.5352 3845.38900
496.7440 3851.69675
496.9529 3880.14303
497.1617 3916.31016
497.3705 3893.41387
497.5793 3961.26307
497.7881 3940.06660
497.9969 3991.79829
498.2056 4020.59273
498.4144 4052.47960
498.6231 4069.92830
498.8318 4095.42551
499.0405 4132.86238
499.2492 4064.97221
499.4578 4159.11734
499.6665 4154.98044
499.8751 4240.60601
500.0837 4261.04474
500.2923 4264.05525
500.5009 4267.70064
500.7095 4313.37034
500.9180 4333.39948
501.1266 4389.37046
501.3351 4394.69518
501.5436 4436.10511
501.7521 4425.33279
501.9606 4479.52205
502.1691 4490.00765
502.3775 4514.17368
502.5860 4565.39338
502.7944 4574.97787
503.0028 4646.20622
503.2112 4676.98719
503.4196 4669.86026
503.6279 4759.02882
503.8363 4704.22518
504.0446 4821.34851
504.2529 4839.30920
504.4612 4878.91691
504.6695 4892.26967
504.8778 4908.59198
505.0860 4955.30615
505.2943 4962.12588
505.5025 5050.20902
505.7107 5059.03576
505.9189 5124.22261
506.1271 5166.06261
506.3353 5178.04323
506.5434 5186.09175
506.7516 5250.43892
506.9597 5258.87655
507.1678 5302.90788
507.3759 5358.18256
507.5840 5359.80045
507.7920 5406.67846
508.0001 5399.32625
508.2081 5528.59404
508.4161 5505.94350
508.6241 5591.58956
508.8321 5567.11633
509.0401 5643.64892
509.2480 5677.52233
509.4560 5659.21349
509.6639 5754.19828
509.8718 5782.52168
510.0797 5829.29729
510.2876 5811.45948
510.4955 5991.49642
510.7033 6014.33127
510.9112 6078.47365
511.1190 6088.63157
511.3268 6078.53509
511.5346 6145.85182
511.7424 6192.97558
511.9501 6251.05598
512.1579 6302.76719
512.3656 6350.52582
512.5733 6333.26144
512.7810 6460.46078
512.9887 6519.50372
513.1964 6588.13115
513.4040 6586.45182
513.6117 6641.25546
513.8193 6692.72092
514.0269 6734.68380
514.2345 6812.54757
514.4421 6830.67209
514.6497 6874.04807
514.8572 6964.52733
515.0647 6975.38156
515.2723 7076.44882
515.4798 7120.15247
515.6873 7226.05294
515.8947 7193.32640
516.1022 7228.57194
516.3097 7284.97300
516.5171 7428.22841
516.7245 7424.93118
516.9319 7486.94368
517.1393 7535.52150
517.3467 7614.18397
517.5540 7663.97010
517.7614 7728.93166
517.9687 7701.46840
518.1760 7762.51835
518.3833 7848.24632
518.5906 7870.71254
518.7978 8025.31370
519.0051 7977.35027
519.2123 8165.27189
519.4196 8069.79558
519.6268 8212.53900
519.8340 8266.21627
520.0411 8357.94479
520.2483 8440.37553
520.4554 8455.26426
520.6626 8522.10996
520.8697 8596.04163
521.0768 8727.52123
521.2839 8754.18578
521.4909 8826.41764
521.6980 9022.77688
521.9050 9047.74162
522.1121 9126.26074
522.3191 9194.78578
522.5261 9231.42394
522.7331 9338.71702
522.9400 9484.69623
523.1470 9506.07703
523.3539 9562.94912
523.5608 9633.23541
523.7677 9683.79975
523.9746 9740.46705
524.1815 9844.13523
524.3884 9916.67428
524.5952 9888.78095
524.8020 10114.18039
525.0089 10044.36513
525.2157 10179.65395
525.4225 10225.77420
525.6292 10300.13595
525.8360 10366.96117
526.0427 10504.74851
526.2494 10577.65620
526.4562 10688.18507
526.6629 10660.10742
526.8695 10761.62523
527.0762 10914.50610
527.2829 10908.36219
527.4895 11160.77434
527.6961 11252.05230
527.9027 11333.00851
528.1093 11326.59837
528.3159 11385.43651
528.5224 11445.40103
528.7290 11717.22793
528.9355 11670.67760
529.1420 11916.86392
529.3485 11817.20976
529.5550 11999.13082
529.7615 12019.36476
529.9680 12199.23785
530.1744 12261.80330
530.3808 12389.67847
530.5872 12336.51320
530.7936 12472.84648
531.0000 12567.15544
531.2064 12651.08120
531.4127 12752.31229
531.6191 12863.25076
531.8254 12893.08966
532.0317 13051.88916
532.2380 13046.54396
532.4443 13266.92588
532.6505 13117.89519
532.8568 13370.36878
533.0630 13572.62618
533.2692 13527.55038
533.4754 13660.66835
533.6816 13884.87997
533.8878 13832.67725
534.0939 14063.01229
534.3001 14064.87594
534.5062 14166.25040
534.7123 14204.62933
534.9184 14236.61860
535.1245 14290.93073
535.3306 14408.46366
535.5366 14580.22680
535.7426 14715.29034
535.9487 14922.93389
536.1547 14767.51354
536.3607 14948.30822
536.5666 14951.83073
536.7726 15083.20793
536.9785 15236.41647
537.1845 15437.13788
537.3904 15348.64515
537.5963 15570.19441
537.8022 15627.25082
538.0080 15831.00323
538.2139 15871.94213
538.4197 16035.30860
538.6256 16035.82059
538.8314 16143.62566
539.0372 16194.33337
539.2430 16470.31764
539.4487 16153.33304
539.6545 16599.56495
539.8602 16516.97037
540.0659 16690.90435
540.2716 17001.51977
540.4773 16930.55766
540.6830 17269.27121
540.8887 17233.41128
541.0943 17165.68495
541.2999 17202.46647
541.5056 17309.80051
541.7112 17451.90906
541.9167 17424.73252
542.1223 17652.22088
542.3279 17697.68579
542.5334 17827.58845
542.7389 18064.74323
542.9444 18212.19698
543.1499 18266.69343
543.3554 18172.52783
543.5609 18445.82925
543.7663 18602.33503
543.9718 18439.11192
544.1772 18701.27240
544.3826 18700.84232
544.5880 19062.22689
544.7934 19079.47079
544.9987 19103.96449
545.2041 19459.90146
545.4094 19309.00712
545.6147 19487.28280
545.8200 19664.20682
546.0253 19760.82999
546.2306 19891.12176
546.4358 19807.09360
546.6411 20062.65962
546.8463 20042.52809
547.0515 20343.16990
547.2567 20359.22598
547.4619 20466.72386
547.6670 20637.46301
547.8722 20697.77569
548.0773 21056.90749
548.2824 20946.27622
548.4876 20950.98655
548.6926 21243.55936
548.8977 21411.94335
549.1028 21656.51178
549.3078 21625.17786
549.5129 21683.79073
549.7179 21744.12389
549.9229 21891.31140
550.1279 21825.03913
550.3328 21990.02349
550.5378 21834.58267
550.7427 22110.97653
550.9476 22161.47944
551.1526 21904.47984
551.3575 22316.79739
551.5623 22331.03077
551.7672 22285.15627
551.9720 22499.12805
552.1769 22452.88491
552.3817 22788.05548
552.5865 22539.39111
552.7913 22711.58432
552.9961 22657.29267
553.2008 22764.38096
553.4056 23122.46829
553.6103 23006.32799
553.8150 23336.15335
554.0197 23399.74278
554.2244 23270.45452
554.4291 23178.95127
554.6337 23459.56395
554.8384 23498.76207
555.0430 23487.04769
555.2476 23426.10014
555.4522 23352.14799
555.6568 23546.23399
555.8613 23667.67853
556.0659 23856.29646
556.2704 23649.69737
556.4750 23927.44289
556.6795 23951.01501
556.8839 23808.23063
557.0884 24037.31641
557.2929 24059.37304
557.4973 23973.15355
557.7018 23998.40501
557.9062 24002.43951
558.1106 24069.42856
558.3150 24000.59633
558.5193 24195.07145
558.7237 24242.60480
558.9280 24109.26156
559.1323 24055.99389
559.3367 24056.75164
559.5410 24178.21666
559.7452 23802.39392
559.9495 24276.13005
560.1537 24198.73731
560.3580 24143.54455
560.5622 24405.54120
560.7664 24508.63594
560.9706 24416.84598
561.1748 24628.09396
561.3789 24610.13327
561.5831 24622.31869
561.7872 24629.26130
561.9913 24705.28190
562.1954 24565.44660
562.3995 24747.85917
562.6036 24719.08521
562.8076 24487.62378
563.0117 24857.65078
563.2157 24786.97538
563.4197 24984.15381
563.6237 24902.27602
563.8277 24683.53247
564.0316 24544.20916
564.2356 24770.65306
564.4395 24885.25740
564.6434 24859.24819
564.8473 25107.87160
565.0512 25042.41852
565.2551 25059.86721
565.4590 25150.53079
565.6628 25201.48425
565.8666 25289.30115
566.0705 25243.11945
566.2743 25104.49245
566.4780 25139.06216
566.6818 25170.02745
566.8856 25397.74110
567.0893 25162.28613
567.2930 25214.44789
567.4967 25075.90281
567.7004 25251.90524
567.9041 25374.12802
568.1078 25271.91390
568.3114 25336.07676
568.5151 25407.22319
568.7187 24888.71846
568.9223 25339.84502
569.1259 25316.94873
569.3295 25639.46285
569.5330 25589.51289
569.7366 25464.89399
569.9401 25583.45090
570.1436 25575.68910
570.3471 25873.77095
570.5506 25804.79536
570.7541 25675.48662
570.9575 25790.27527
571.1609 25584.49537
571.3644 25870.43276
571.5678 25864.10454
571.7712 26035.84720
571.9746 25992.92177
572.1779 25804.81584
572.3813 25646.46690
572.5846 26022.88356
572.7879 25892.53035
572.9912 26232.55460
573.1945 26169.96867
573.3978 25989.41975
573.6010 26055.11858
573.8043 26331.88108
574.0075 25875.30693
574.2107 26003.91937
574.4139 25835.92449
574.6171 25987.41274
574.8203 25595.37008
575.0234 25843.13334
575.2266 25520.10723
575.4297 25618.18445
575.6328 25671.04253
575.8359 25701.61870
576.0390 25144.44832
576.2420 25307.20040
576.4451 24939.48761
576.6481 25226.79714
576.8512 25575.07471
577.0542 24987.84015
577.2571 25254.26040
577.4601 25183.93316
577.6631 24916.95995
577.8660 24909.38247
578.0689 24526.45327
578.2719 24610.99342
578.4748 24684.57694
578.6776 24444.06349
578.8805 24435.42106
579.0834 24173.99785
579.2862 24385.02055
579.4890 24462.33137
579.6918 24612.40652
579.8946 24125.13331
580.0974 24234.86348
580.3002 24031.13155
580.5029 23833.68688
580.7057 24078.07099
580.9084 23681.42040
581.1111 23983.27052
581.3138 23722.62554
581.5164 23583.09742
581.7191 23481.72297
581.9217 23380.30756
582.1244 23205.67726
582.3270 23099.57200
582.5296 23232.07558
582.7322 23359.45924
582.9347 23174.13855
583.1373 22944.27453
583.3398 22972.16787
583.5424 22836.51042
583.7449 22737.10201
583.9474 22648.69120
584.1498 22491.61200
584.3523 22680.14800
584.5548 22421.65339
584.7572 22428.82128
584.9596 22488.68340
585.1620 22704.45739
585.3644 22235.08343
585.5668 22164.30563
585.7691 22265.10666
585.9715 22090.04629
586.1738 22221.71020
586.3761 22039.95297
586.5784 22239.54801
586.7807 22154.27059
586.9830 22118.49257
587.1852 21943.37077
587.3875 21852.09280
587.5897 21979.02590
587.7919 21850.94594
587.9941 21654.93485
588.1963 21629.21236
588.3984 21546.22867
588.6006 21287.54973
588.8027 21617.90757
589.0048 21481.88149
589.2069 21429.59685
589.4090 21556.44803
589.6111 21634.51660
589.8131 21627.71734
590.0152 21692.90419
590.2172 21385.87271
590.4192 21635.41770
590.6212 21373.62586
590.8232 21186.70775
591.0252 21424.00589
591.2271 21420.09427
591.4291 21413.11070
591.6310 21245.97597
591.8329 21175.68968
592.0348 21251.30069
592.2367 21227.62617
592.4385 21392.38525
592.6404 21528.20654
592.8422 21547.62128
593.0440 21648.34039
593.2458 21745.92610
593.4476 21725.26209
593.6494 21745.14787
593.8512 21797.55539
594.0529 21780.20910
594.2546 21783.40393
594.4563 21710.82391
594.6580 21601.85150
594.8597 21606.29559
595.0614 21552.24969
595.2630 21759.77037
595.4647 21732.98294
595.6663 21584.19801
595.8679 21697.47116
596.0695 21918.01691
596.2711 21726.47040
596.4727 21781.66315
596.6742 21841.03377
596.8757 21942.10103
597.0773 21966.47185
597.2788 21764.52165
597.4802 21893.25697
597.6817 22002.31131
597.8832 21827.59909
598.0846 21891.84387
598.2860 21806.03398
598.4875 21600.04928
598.6889 21906.34349
598.8902 21884.26639
599.0916 21979.35358
599.2930 21812.48508
599.4943 21985.57940
599.6956 21955.12611
599.8969 21832.67805
600.0982 21727.45342
600.2995 21569.08400
600.5008 21935.32225
600.7020 21729.60379
600.9032 21852.25664
601.1045 21864.95404
601.3057 21714.96081
601.5068 21894.56767
601.7080 21977.85856
601.9092 21689.66840
602.1103 21968.54030
602.3115 21936.28479
602.5126 21854.36604
602.7137 21711.54070
602.9147 21788.87200
603.1158 21859.17877
603.3169 21895.67357
603.5179 21882.01362
603.7189 21720.98184
603.9199 21833.02621
604.1209 21649.18005
604.3219 21651.08467
604.5229 21755.49011
604.7238 21744.71780
604.9247 21695.68943
605.1257 21669.59830
605.3266 21720.46985
605.5275 21517.98718
605.7283 21582.25244
605.9292 21702.81636
606.1300 21245.32062
606.3309 21325.29380
606.5317 21484.25713
606.7325 21627.47159
606.9332 21580.04063
607.1340 21469.96231
607.3348 21362.73067
607.5355 21275.56912
607.7362 21466.66508
607.9369 21075.29825
608.1376 21222.93632
608.3383 21089.47020
608.5390 21181.01440
608.7396 21090.69898
608.9402 21280.60712
609.1409 21230.30901
609.3415 20951.74430
609.5421 20887.06944
609.7426 20900.54508
609.9432 20786.69850
610.1437 20508.13379
610.3443 20878.44750
610.5448 20676.59970
610.7453 20721.28637
610.9457 20566.41898
611.1462 20529.65794
611.3467 20433.40341
611.5471 20578.03096
611.7475 20318.34852
611.9479 20581.04147
612.1483 20206.22223
612.3487 20411.53110
612.5491 20050.96572
612.7494 20362.66657
612.9497 20004.37443
613.1501 20078.90002
613.3504 19980.65895
613.5506 20295.96422
613.7509 20012.58679
613.9512 19682.59758
614.1514 19624.64007
614.3516 19860.77086
614.5519 19705.71915
614.7521 19793.20837
614.9522 19549.37722
615.1524 19380.41979
615.3526 19466.20920
615.5527 19618.88528
615.7528 19261.57617
615.9529 19236.28375
616.1530 19279.29110
616.3531 19369.15597
616.5532 19330.36744
616.7532 18994.45960
616.9532 18918.07037
617.1533 18741.59690
617.3533 18802.87213
617.5532 18618.53446
617.7532 18620.62339
617.9532 18346.13414
618.1531 18656.64716
618.3530 18191.86065
618.5530 18250.94455
618.7528 18258.31724
618.9527 18204.63998
619.1526 17968.57062
619.3524 17853.49525
619.5523 17848.29341
619.7521 17778.13000
619.9519 17725.49721
620.1517 17622.54582
620.3515 17628.64876
620.5512 17622.60726
620.7510 17522.99406
620.9507 17217.47808
621.1504 17128.43240
621.3501 17177.52221
621.5498 17172.54564
621.7495 16992.85687
621.9492 16949.39897
622.1488 16610.05055
622.3484 16501.03717
622.5480 16359.23581
622.7476 16651.39904
622.9472 16335.66369
623.1468 16217.51638
623.3463 16599.15535
623.5459 16375.64004
623.7454 16142.35592
623.9449 16145.48932
624.1444 16110.51001
624.3439 16109.26075
624.5433 15829.42630
624.7428 15759.71344
624.9422 15610.98995
625.1416 15569.23187
625.3410 15442.85172
625.5404 15394.45822
625.7398 15157.30343
625.9391 15237.39949
626.1385 15012.55300
626.3378 14957.83128
626.5371 15099.40736
626.7364 14773.30929
626.9357 14787.76795
627.1350 14667.57267
627.3342 14522.10545
627.5335 14391.40408
627.7327 14419.46125
627.9319 14349.89175
628.1311 14532.40673
628.3303 14168.01165
628.5294 14149.76425
628.7286 14158.07900
628.9277 14154.43362
629.1268 13945.54080
629.3259 13990.94427
629.5250 13871.91633
629.7241 13797.12451
629.9231 13496.62605
630.1222 13655.91706
630.3212 13560.09261
630.5202 13359.59647
630.7192 13361.31676
630.9182 13180.39920
631.1171 13184.86377
631.3161 13037.61482
631.5150 12860.07641
631.7140 12939.49664
631.9129 12896.61217
632.1118 12905.86899
632.3106 12830.50374
632.5095 12750.51008
632.7083 12582.33089
632.9072 12559.45507
633.1060 12594.72110
633.3048 12352.38495
633.5036 12292.85050
633.7023 12268.86879
633.9011 12277.81841
634.0998 12366.24970
634.2986 12100.62816
634.4973 12101.54974
634.6960 12038.02175
634.8947 11957.22938
635.0933 11894.64346
635.2920 11912.58367
635.4906 11717.37128
635.6892 11736.99083
635.8878 11752.18675
636.0864 11770.72087
636.2850 11555.41792
636.4836 11531.43620
636.6821 11468.31780
636.8806 11477.82038
637.0792 11511.96002
637.2777 11431.31101
637.4761 11313.10225
637.6746 11213.24330
637.8731 11348.92123
638.0715 11152.99206
638.2699 11192.70217
638.4683 11149.81770
638.6667 11042.50414
638.8651 11042.85230
639.0635 11039.53459
639.2618 10995.60566
639.4602 10964.59941
639.6585 10874.40687
639.8568 10926.40479
640.0551 10793.51210
640.2534 10713.90756
640.4516 10755.56324
640.6499 10784.09145
640.8481 10856.56906
641.0463 10778.27521
641.2445 10836.06889
641.4427 10786.18037
641.6409 10751.91786
641.8390 10768.30161
642.0372 10813.19308
642.2353 10707.21070
642.4334 10648.06536
642.6315 10711.51143
642.8296 10655.43805
643.0277 10557.77042
643.2257 10664.57199
643.4237 10632.15264
643.6218 10552.54810
643.8198 10580.97390
644.0178 10588.96098
644.2157 10567.17060
644.4137 10556.07060
644.6116 10797.15749
644.8096 10803.85434
645.0075 10508.55773
645.2054 10662.76978
