# Averages = 100
# wavelength [µm]	intensity
446.8250 14.33578
447.0374 36746.70328
447.2498 1231.30025
447.4621 1224.15284
447.6745 1233.86021
447.8868 1242.37976
448.0992 1235.90818
448.3115 1231.54601
448.5238 1253.56167
448.7360 1235.66242
448.9483 1240.53659
449.1606 1238.89822
449.3728 1259.82846
449.5850 1234.55652
449.7972 1236.15394
450.0094 1237.62848
450.2216 1256.49027
450.4337 1250.44876
450.6459 1687.54673
450.8580 2026.83371
451.0701 2049.89384
451.2822 2074.20323
451.4943 2059.33498
451.7064 2048.99273
451.9184 2039.57208
452.1305 2108.89582
452.3425 2202.38559
452.5545 2142.19579
452.7665 2121.67515
452.9785 2251.39349
453.1905 2283.83331
453.4024 2210.63891
453.6143 2306.81152
453.8263 2291.28792
454.0382 2413.85885
454.2501 2260.30215
454.4619 2255.36655
454.6738 2387.09190
454.8856 2451.09092
455.0975 2307.56927
455.3093 2294.29843
455.5211 2388.01348
455.7329 2335.23733
455.9446 2377.69172
456.1564 2388.62787
456.3681 2451.04996
456.5798 2511.07592
456.7916 2448.05993
457.0033 2438.18872
457.2149 2408.10405
457.4266 2431.73761
457.6382 2503.35508
457.8499 2466.94220
458.0615 2582.30428
458.2731 2490.00232
458.4847 2577.10244
458.6963 2603.70555
458.9078 2630.18579
459.1194 2772.82681
459.3309 2799.45040
459.5424 2645.03356
459.7539 2537.88383
459.9654 2601.57566
460.1769 2667.09018
460.3883 2658.91879
460.5998 2512.57094
460.8112 2487.17613
461.0226 2567.39506
461.2340 2676.16268
461.4454 2607.82197
461.6567 2566.76019
461.8681 2562.70522
462.0794 2519.96411
462.2907 2624.10332
462.5020 2706.82078
462.7133 2803.48490
462.9246 2875.36860
463.1359 2707.20989
463.3471 2476.58813
463.5583 2527.88975
463.7696 2871.72322
463.9808 2736.41393
464.1919 2625.80313
464.4031 2633.91309
464.6143 2784.07016
464.8254 2619.16771
465.0365 2586.33878
465.2476 2702.35620
465.4587 2762.83272
465.6698 2592.68748
465.8809 2555.49637
466.0919 2561.49691
466.3030 2756.36114
466.5140 2716.91726
466.7250 2606.16311
466.9360 2661.19203
467.1469 2606.20407
467.3579 2494.15970
467.5688 2501.28663
467.7798 2612.96237
467.9907 2779.46223
468.2016 2604.77049
468.4125 2595.98471
468.6233 2487.05325
468.8342 2512.87814
469.0450 2767.29729
469.2559 2753.28919
469.4667 2740.07979
469.6775 2524.73587
469.8882 2546.69010
470.0990 2606.49079
470.3098 2765.63844
470.5205 2631.88560
470.7312 2771.47515
470.9419 2865.59979
471.1526 2706.34974
471.3633 2578.94561
471.5739 2633.81069
471.7846 2612.30702
471.9952 2448.28520
472.2058 2515.04898
472.4164 2497.29309
472.6270 2536.20450
472.8376 2579.78528
473.0481 2726.17408
473.2587 2767.39969
473.4692 2709.52410
473.6797 2631.45553
473.8902 2561.27164
474.1007 2492.15269
474.3111 2475.70750
474.5216 2417.99574
474.7320 2541.24250
474.9424 2671.43188
475.1528 2734.95987
475.3632 2566.96499
475.5736 2569.21776
475.7840 2513.10341
475.9943 2538.78494
476.2046 2579.60096
476.4149 2595.80039
476.6252 2681.61028
476.8355 2828.81827
477.0458 2841.49520
477.2561 2880.16085
477.4663 2750.52443
477.6765 2692.09588
477.8867 2652.09905
478.0969 2670.63317
478.3071 2675.75309
478.5173 2622.66974
478.7274 2708.68443
478.9375 2849.09317
479.1477 2863.01935
479.3578 2852.39040
479.5679 2940.22778
479.7779 2802.25612
479.9880 2751.54841
480.1980 2821.87566
480.4081 2894.35327
480.6181 2821.91662
480.8281 2719.02667
481.0381 2839.91827
481.2480 2885.64941
481.4580 2805.75815
481.6679 2810.77567
481.8778 2756.50450
482.0877 2832.36126
482.2976 2864.35053
482.5075 2909.26249
482.7174 2878.25624
482.9272 2883.10993
483.1371 2822.73581
483.3469 2849.97379
483.5567 2944.05748
483.7665 2953.12998
483.9762 2948.23533
484.1860 2923.10676
484.3957 2955.30083
484.6055 2899.67799
484.8152 2936.29567
485.0249 2984.09527
485.2346 2968.79694
485.4442 2992.53290
485.6539 3038.18212
485.8635 3041.90942
486.0732 2971.56170
486.2828 2999.65983
486.4924 3012.39819
486.7019 2997.73474
486.9115 3029.51921
487.1210 3075.80331
487.3306 3095.01325
487.5401 3132.83924
487.7496 3121.59589
487.9591 3213.22201
488.1686 3191.41114
488.3780 3149.46874
488.5875 3172.40599
488.7969 3195.81428
489.0063 3177.36208
489.2157 3235.11480
489.4251 3226.53381
489.6345 3238.61682
489.8438 3238.37107
490.0531 3226.98436
490.2625 3250.80224
490.4718 3236.95797
490.6811 3286.78505
490.8903 3345.62319
491.0996 3349.65769
491.3089 3341.77301
491.5181 3377.98110
491.7273 3387.29935
491.9365 3392.27592
492.1457 3441.48861
492.3549 3437.65890
492.5640 3425.92404
492.7732 3474.11275
492.9823 3464.79449
493.1914 3547.57339
493.4005 3540.91749
493.6096 3514.70349
493.8187 3509.37877
494.0277 3579.76746
494.2368 3588.20509
494.4458 3621.21834
494.6548 3650.56574
494.8638 3680.13840
495.0728 3646.71555
495.2817 3702.93230
495.4907 3683.31276
495.6996 3739.05847
495.9085 3728.71622
496.1174 3784.50289
496.3263 3773.73058
496.5352 3805.24882
496.7440 3829.31245
496.9529 3854.21575
497.1617 3875.67846
497.3705 3861.64988
497.5793 3939.71844
497.7881 3913.40205
497.9969 3973.63281
498.2056 3987.98907
498.4144 4012.17558
498.6231 4035.23571
498.8318 4077.23955
499.0405 4088.36002
499.2492 4043.61190
499.4578 4124.67050
499.6665 4124.03563
499.8751 4210.84903
500.0837 4235.64993
500.2923 4238.90620
500.5009 4238.45565
500.7095 4286.02996
500.9180 4302.67995
501.1266 4356.70536
501.3351 4368.60406
501.5436 4413.55697
501.7521 4402.17027
501.9606 4447.92189
502.1691 4460.49642
502.3775 4476.04050
502.5860 4532.83067
502.7944 4546.77734
503.0028 4615.09758
503.2112 4642.64276
503.4196 4616.92027
503.6279 4731.34028
503.8363 4662.83573
504.0446 4794.99115
504.2529 4800.90978
504.4612 4853.89073
504.6695 4852.58003
504.8778 4884.81506
505.0860 4916.59954
505.2943 4932.59417
505.5025 5013.12030
505.7107 5030.46660
505.9189 5078.77818
506.1271 5123.48534
506.3353 5143.06392
506.5434 5123.89493
506.7516 5212.26479
506.9597 5216.42216
507.1678 5254.67822
507.3759 5294.73649
507.5840 5315.27761
507.7920 5360.64012
508.0001 5370.32701
508.2081 5486.03725
508.4161 5467.50313
508.6241 5529.39275
508.8321 5542.27447
509.0401 5596.52516
509.2480 5638.73380
509.4560 5628.63731
509.6639 5701.15589
509.8718 5729.17210
510.0797 5777.31984
510.2876 5772.67095
510.4955 5946.99405
510.7033 5951.23335
510.9112 6046.32054
511.1190 6028.60561
511.3268 6003.64087
511.5346 6106.96089
511.7424 6145.13503
511.9501 6206.81985
512.1579 6233.83256
512.3656 6308.48102
512.5733 6291.83103
512.7810 6406.39440
512.9887 6476.78309
513.1964 6529.53877
513.4040 6541.35555
513.6117 6589.19610
513.8193 6638.16303
514.0269 6669.61983
514.2345 6755.77787
514.4421 6768.94631
514.6497 6827.66158
514.8572 6909.66225
515.0647 6933.21389
515.2723 7004.60608
515.4798 7040.67081
515.6873 7125.39527
515.8947 7112.67739
516.1022 7176.57401
516.3097 7206.90443
516.5171 7354.01003
516.7245 7356.54951
516.9319 7402.89504
517.1393 7457.14573
517.3467 7541.29677
517.5540 7563.86538
517.7614 7653.58689
517.9687 7624.69005
518.1760 7701.81656
518.3833 7779.51649
518.5906 7794.89674
518.7978 7938.25455
519.0051 7916.95568
519.2123 8065.43341
519.4196 8009.27811
519.6268 8119.58170
519.8340 8182.92538
520.0411 8275.69836
520.2483 8347.33631
520.4554 8372.32153
520.6626 8469.94820
520.8697 8503.28913
521.0768 8656.88678
521.2839 8679.88547
521.4909 8743.84354
521.6980 8921.85298
521.9050 8959.39225
522.1121 9041.22908
522.3191 9100.49730
522.5261 9156.71404
522.7331 9242.48297
522.9400 9398.62011
523.1470 9410.74408
523.3539 9466.91986
523.5608 9517.66853
523.7677 9599.66920
523.9746 9642.14407
524.1815 9736.35063
524.3884 9827.36236
524.5952 9777.49432
524.8020 9994.43565
525.0089 9940.79935
525.2157 10057.63597
525.4225 10111.04700
525.6292 10169.63938
525.8360 10255.53119
526.0427 10379.69954
526.2494 10459.14024
526.4562 10551.66747
526.6629 10538.37615
526.8695 10617.34583
527.0762 10789.94864
527.2829 10782.45307
527.4895 11028.31172
527.6961 11113.44578
527.9027 11174.33189
528.1093 11181.97081
528.3159 11259.83459
528.5224 11299.15559
528.7290 11587.87822
528.9355 11528.20041
529.1420 11741.00484
529.3485 11655.82982
529.5550 11845.88132
529.7615 11870.10879
529.9680 12058.66528
530.1744 12109.22962
530.3808 12217.93581
530.5872 12182.66978
530.7936 12336.39032
531.0000 12407.55723
531.2064 12482.96344
531.4127 12572.17296
531.6191 12683.56198
531.8254 12708.75200
532.0317 12857.43453
532.2380 12893.78597
532.4443 13080.90888
532.6505 12929.35919
532.8568 13157.78963
533.0630 13362.54554
533.2692 13357.11842
533.4754 13456.46539
533.6816 13691.87940
533.8878 13666.17739
534.0939 13869.13109
534.3001 13852.41967
534.5062 13962.41607
534.7123 14036.57302
534.9184 14043.06508
535.1245 14083.90157
535.3306 14186.93488
535.5366 14377.78509
535.7426 14515.32667
535.9487 14709.49459
536.1547 14535.33532
536.3607 14720.18498
536.5666 14712.27982
536.7726 14888.03650
536.9785 14983.71760
537.1845 15176.88202
537.3904 15117.47044
537.5963 15321.89868
537.8022 15381.00306
538.0080 15593.19310
538.2139 15628.90968
538.4197 15774.17210
538.6256 15771.59166
538.8314 15885.62256
539.0372 15929.77677
539.2430 16191.44573
539.4487 15885.45872
539.6545 16313.62755
539.8602 16249.32133
540.0659 16380.96476
540.2716 16684.45325
540.4773 16639.31602
540.6830 16958.24619
540.8887 16951.28310
541.0943 16895.57835
541.2999 16936.64012
541.5056 17029.14687
541.7112 17161.52757
541.9167 17096.56600
542.1223 17343.24384
542.3279 17367.90138
542.5334 17490.45183
542.7389 17750.23667
542.9444 17847.10559
543.1499 17928.45091
543.3554 17852.92182
543.5609 18103.18360
543.7663 18278.79692
543.9718 18095.60612
544.1772 18378.18485
544.3826 18388.83428
544.5880 18736.43602
544.7934 18705.73697
544.9987 18764.18600
545.2041 19112.64788
545.4094 18954.36038
545.6147 19055.81675
545.8200 19315.13055
546.0253 19343.72019
546.2306 19550.23736
546.4358 19441.18303
546.6411 19678.46069
546.8463 19672.54206
547.0515 19960.89606
547.2567 19930.34036
547.4619 20075.47991
547.6670 20206.79566
547.8722 20262.80761
548.0773 20634.08386
548.2824 20521.24079
548.4876 20519.82769
548.6926 20774.73836
548.8977 20956.31127
549.1028 21166.51478
549.3078 21150.95022
549.5129 21234.42542
549.7179 21263.89569
549.9229 21398.22196
550.1279 21356.34100
550.3328 21504.16339
550.5378 21354.70263
550.7427 21603.91995
550.9476 21709.69753
551.1526 21405.98377
551.3575 21791.55484
551.5623 21810.47807
551.7672 21737.34511
551.9720 21972.24712
552.1769 21952.17703
552.3817 22235.84118
552.5865 21970.69067
552.7913 22159.47243
552.9961 22099.61030
553.2008 22261.39983
553.4056 22544.85919
553.6103 22428.39120
553.8150 22761.04277
554.0197 22782.38260
554.2244 22678.50963
554.4291 22594.31763
554.6337 22884.86296
554.8384 22911.69135
555.0430 22881.66813
555.2476 22810.07114
555.4522 22779.02393
555.6568 22895.98343
555.8613 23034.05748
556.0659 23212.98851
556.2704 23012.02134
556.4750 23255.44290
556.6795 23306.62164
556.8839 23112.67900
557.0884 23350.91921
557.2929 23370.78450
557.4973 23317.35300
557.7018 23285.52757
557.9062 23317.18916
558.1106 23373.63118
558.3150 23317.27108
558.5193 23502.75561
558.7237 23529.89120
558.9280 23378.50535
559.1323 23327.24469
559.3367 23349.52659
559.5410 23406.50108
559.7452 23097.60595
559.9495 23528.29378
560.1537 23461.48904
560.3580 23437.69164
560.5622 23676.25952
560.7664 23752.64876
560.9706 23621.33300
561.1748 23836.75883
561.3789 23837.06603
561.5831 23801.71809
561.7872 23817.44649
561.9913 23911.14106
562.1954 23822.87361
562.3995 23984.37642
562.6036 23917.46928
562.8076 23683.75509
563.0117 24014.13341
563.2157 23934.95894
563.4197 24124.68276
563.6237 24065.63982
563.8277 23806.96089
564.0316 23711.44363
564.2356 23911.55065
564.4395 23995.72217
564.6434 23967.91075
564.8473 24202.01406
565.0512 24118.33406
565.2551 24151.83883
565.4590 24267.79482
565.6628 24296.07727
565.8666 24362.16522
566.0705 24284.75200
566.2743 24140.84123
566.4780 24164.96631
566.6818 24173.91593
566.8856 24407.09765
567.0893 24163.81944
567.2930 24210.82033
567.4967 24124.62132
567.7004 24265.27582
567.9041 24370.50045
568.1078 24244.81661
568.3114 24299.47689
568.5151 24341.05066
568.7187 23842.12451
568.9223 24202.21886
569.1259 24195.41960
569.3295 24530.83592
569.5330 24454.24189
569.7366 24336.31985
569.9401 24490.32710
570.1436 24462.45425
570.3471 24716.70957
570.5506 24660.63618
570.7541 24512.67044
570.9575 24594.22056
571.1609 24426.18472
571.3644 24672.22769
571.5678 24642.63454
571.7712 24774.17557
571.9746 24732.41749
572.1779 24542.98038
572.3813 24388.39970
572.5846 24738.80715
572.7879 24630.73584
572.9912 24911.22564
573.1945 24825.49767
573.3978 24665.34651
573.6010 24749.21083
573.8043 24988.31118
574.0075 24478.44888
574.2107 24652.97678
574.4139 24488.64777
574.6171 24588.24049
574.8203 24258.25128
575.0234 24483.44593
575.2266 24141.82426
575.4297 24224.45980
575.6328 24259.84870
575.8359 24249.97749
576.0390 23706.15987
576.2420 23845.01215
576.4451 23547.66757
576.6481 23804.72860
576.8512 24069.73576
577.0542 23479.71596
577.2571 23753.59082
577.4601 23664.58610
577.6631 23416.35181
577.8660 23379.09926
578.0689 22990.78390
578.2719 23092.79323
578.4748 23138.99540
578.6776 22919.67843
578.8805 22838.23071
579.0834 22630.58716
579.2862 22812.89734
579.4890 22878.24802
579.6918 22963.50496
579.8946 22494.41772
580.0974 22593.53940
580.3002 22403.16023
580.5029 22181.79529
580.7057 22423.78327
580.9084 22037.86404
581.1111 22278.43893
581.3138 22062.68543
581.5164 21900.01527
581.7191 21728.23165
581.9217 21691.38869
582.1244 21465.31342
582.3270 21359.65871
582.5296 21506.33423
582.7322 21564.57847
582.9347 21442.47857
583.1373 21158.44578
583.3398 21207.02360
583.5424 21062.19125
583.7449 20970.01218
583.9474 20856.88238
584.1498 20692.22570
584.3523 20859.95434
584.5548 20596.29884
584.7572 20576.29019
584.9596 20596.48316
585.1620 20774.77932
585.3644 20347.12248
585.5668 20264.83510
585.7691 20361.25347
585.9715 20183.32594
586.1738 20276.95907
586.3761 20092.80572
586.5784 20222.95414
586.7807 20141.15827
586.9830 20088.36163
587.1852 19950.90197
587.3875 19777.86909
587.5897 19948.19865
587.7919 19764.86449
587.9941 19567.56318
588.1963 19518.06377
588.3984 19419.51552
588.6006 19200.42382
588.8027 19489.78132
589.0048 19327.58220
589.2069 19238.29076
589.4090 19384.76149
589.6111 19389.38990
589.8131 19324.05969
590.0152 19417.69282
590.2172 19099.27464
590.4192 19350.72425
590.6212 19073.83887
590.8232 18865.70381
591.0252 19064.78685
591.2271 18995.15591
591.4291 18987.55795
591.6310 18857.08186
591.8329 18750.56700
592.0348 18813.58300
592.2367 18729.12477
592.4385 18861.01396
592.6404 18970.76460
592.8422 18940.43419
593.0440 19018.37988
593.2458 19069.66102
593.4476 19015.32840
593.6494 19025.65017
593.8512 19057.10697
594.0529 19024.48282
594.2546 18986.47252
594.4563 18878.87225
594.6580 18767.99522
594.8597 18740.20428
595.0614 18666.70268
595.2630 18804.63338
595.4647 18752.63545
595.6663 18634.52910
595.8679 18686.58846
596.0695 18803.32268
596.2711 18658.42889
596.4727 18675.54991
596.6742 18706.76095
596.8757 18758.26737
597.0773 18728.63326
597.2788 18510.01260
597.4802 18625.72283
597.6817 18692.71189
597.8832 18499.85467
598.0846 18504.15540
598.2860 18421.99090
598.4875 18251.12887
598.6889 18449.57704
598.8902 18355.06328
599.0916 18434.38111
599.2930 18273.04213
599.4943 18349.51328
599.6956 18350.08672
599.8969 18145.82231
600.0982 18035.47776
600.2995 17913.05018
600.5008 18162.71805
600.7020 17977.70456
600.9032 18021.16245
601.1045 17988.78407
601.3057 17852.65559
601.5068 17961.70992
601.7080 17977.17209
601.9092 17720.93024
602.1103 17917.45332
602.3115 17821.60838
602.5126 17736.78151
602.7137 17593.15747
602.9147 17591.02758
603.1158 17645.68786
603.3169 17607.24749
603.5179 17593.71042
603.7189 17370.80950
603.9199 17442.95944
604.1209 17291.22543
604.3219 17227.45169
604.5229 17304.41435
604.7238 17250.81901
604.9247 17138.93848
605.1257 17140.12630
605.3266 17109.93924
605.5275 16950.81207
605.7283 16961.62534
605.9292 16975.89968
606.1300 16615.58006
606.3309 16638.25108
606.5317 16696.76154
606.7325 16808.39632
606.9332 16743.96722
607.1340 16629.71105
607.3348 16480.08645
607.5355 16348.23822
607.7362 16429.03059
607.9369 16158.61680
608.1376 16236.03001
608.3383 16086.42590
608.5390 16121.87624
608.7396 15999.48962
608.9402 16110.53049
609.1409 16062.58754
609.3415 15800.89809
609.5421 15691.57752
609.7426 15682.70982
609.9432 15569.76434
610.1437 15312.94906
610.3443 15544.00089
610.5448 15383.54254
610.7453 15350.22209
610.9457 15225.35744
611.1462 15212.00468
611.3467 15040.99929
611.5471 15155.70602
611.7475 14940.91506
611.9479 15126.27671
612.1483 14768.68088
612.3487 14898.33779
612.5491 14608.12013
612.7494 14753.64879
612.9497 14460.56399
613.1501 14545.71853
613.3504 14378.60428
613.5506 14580.32920
613.7509 14366.80798
613.9512 14113.47424
614.1514 14017.93650
614.3516 14181.56920
614.5519 14053.12060
614.7521 14034.17689
614.9522 13903.49601
615.1524 13732.75685
615.3526 13741.01017
615.5527 13832.43149
615.7528 13571.25404
615.9529 13534.06292
616.1530 13519.76810
616.3531 13570.88540
616.5532 13526.26016
616.7532 13253.59360
616.9532 13191.54015
617.1533 13029.83254
617.3533 13051.39765
617.5532 12921.31067
617.7532 12887.00720
617.9532 12703.48872
618.1531 12887.84686
618.3530 12561.52352
618.5530 12561.38017
618.7528 12561.23681
618.9527 12490.72524
619.1526 12352.56927
619.3524 12246.34113
619.5523 12230.22362
619.7521 12144.39325
619.9519 12116.56135
620.1517 12028.80589
620.3515 12013.36421
620.5512 12012.72934
620.7510 11923.60174
620.9507 11758.02346
621.1504 11652.88075
621.3501 11663.65306
621.5498 11634.79718
621.7495 11535.18398
621.9492 11445.83111
622.1488 11257.66374
622.3484 11149.44907
622.5480 11090.79525
622.7476 11275.23531
622.9472 11085.53197
623.1468 10996.89588
623.3463 11218.79329
623.5459 11095.09598
623.7454 10934.92434
623.9449 10942.60423
624.1444 10934.59667
624.3439 10905.96607
624.5433 10753.69959
624.7428 10678.58010
624.9422 10619.06612
625.1416 10637.92792
625.3410 10521.23466
625.5404 10507.88190
625.7398 10401.20321
625.9391 10447.36442
626.1385 10310.39627
626.3378 10295.95809
626.5371 10373.43275
626.7364 10178.85524
626.9357 10190.16003
627.1350 10159.21522
627.3342 10081.22857
627.5335 10030.56182
627.7327 10036.58285
627.9319 10044.05794
628.1311 10140.41487
628.3303 9931.44014
628.5294 9951.87886
628.7286 9966.89047
628.9277 10038.75370
629.1268 9932.52556
629.3259 9951.34639
629.5250 9913.35657
629.7241 9851.26216
629.9231 9679.82670
630.1222 9840.61272
630.3212 9795.74173
630.5202 9644.54019
630.7192 9712.67611
630.9182 9672.61785
631.1171 9664.32357
631.3161 9615.60240
631.5150 9561.22883
631.7140 9637.63854
631.9129 9634.95570
632.1118 9697.82834
632.3106 9673.86711
632.5095 9670.83611
632.7083 9585.37438
632.9072 9589.75703
633.1060 9658.73262
633.3048 9522.56317
633.5036 9531.55376
633.7023 9534.15468
633.9011 9626.41567
634.0998 9691.35676
634.2986 9583.51072
634.4973 9692.60602
634.6960 9637.90478
634.8947 9616.87214
635.0933 9612.12085
635.2920 9684.74182
635.4906 9600.97990
635.6892 9701.08461
635.8878 9713.72058
636.0864 9798.56792
636.2850 9698.91376
636.4836 9709.78848
636.6821 9712.75803
636.8806 9800.24726
637.0792 9864.98355
637.2777 9842.72213
637.4761 9856.66880
637.6746 9852.65478
637.8731 10014.05520
638.0715 9886.83538
638.2699 10001.58307
638.4683 9993.49359
638.6667 9950.11761
638.8651 10009.85686
639.0635 10092.20568
639.2618 10082.94886
639.4602 10162.26669
639.6585 10122.12651
639.8568 10288.52397
640.0551 10256.67805
640.2534 10251.41477
640.4516 10363.43866
640.6499 10399.91299
640.8481 10556.19348
641.0463 10611.38624
641.2445 10735.86178
641.4427 10695.61920
641.6409 10752.34793
641.8390 10801.74494
642.0372 10823.45340
642.2353 10811.77998
642.4334 10831.07185
642.6315 10967.32321
642.8296 11023.58091
643.0277 10974.85973
643.2257 11174.57765
643.4237 11202.57338
643.6218 11165.11603
643.8198 11282.07553
644.0178 11435.95990
644.2157 11384.69924
644.4137 11441.28462
644.6116 11821.24426
644.8096 11870.74366
645.0075 11651.46765
645.2054 11891.46911
645.4033 11864.82503
645.6011 11911.23201
