# Averages = 100
# wavelength [µm]	intensity
446.8250 14.33578
447.0374 36746.70328
447.2498 1229.31372
447.4621 1222.06391
447.6745 1233.47110
447.8868 1241.21242
448.0992 1246.74194
448.3115 1234.14693
448.5238 1248.87182
448.7360 1238.42718
448.9483 1240.86427
449.1606 1247.82736
449.3728 1266.52531
449.5850 1230.70634
449.7972 1243.54710
450.0094 1237.77183
450.2216 1257.00226
450.4337 1257.20706
450.6459 1663.44214
450.8580 1986.81640
451.0701 2009.22118
451.2822 2034.20640
451.4943 2015.52892
451.7064 1999.51381
451.9184 1996.81049
452.1305 2057.02077
452.3425 2163.92474
452.5545 2087.14639
452.7665 2080.22426
452.9785 2186.28856
453.1905 2227.16602
453.4024 2153.78730
453.6143 2244.88095
453.8263 2230.50420
454.0382 2337.73585
454.2501 2207.71031
454.4619 2191.24464
454.6738 2317.99343
454.8856 2371.19966
455.0975 2235.52173
455.3093 2243.95936
455.5211 2327.94656
455.7329 2288.52316
455.9446 2315.98642
456.1564 2313.11926
456.3681 2377.28213
456.5798 2442.94000
456.7916 2369.29505
457.0033 2373.94394
457.2149 2352.82938
457.4266 2379.08434
457.6382 2434.62525
457.8499 2393.60444
458.0615 2502.35158
458.2731 2422.50128
458.4847 2506.22224
458.6963 2526.18993
458.9078 2547.83696
459.1194 2684.66175
459.3309 2697.66636
459.5424 2558.69120
459.7539 2462.27283
459.9654 2515.21282
460.1769 2574.25576
460.3883 2570.18030
460.5998 2436.63226
460.8112 2411.48320
461.0226 2487.01229
461.2340 2596.37382
461.4454 2530.59307
461.6567 2486.54126
461.8681 2462.12947
462.0794 2438.84407
462.2907 2534.93476
462.5020 2622.44446
462.7133 2715.01265
462.9246 2770.90172
463.1359 2629.98099
463.3471 2403.90572
463.5583 2458.66840
463.7696 2779.40079
463.9808 2648.02359
464.1919 2541.89785
464.4031 2539.97276
464.6143 2679.54183
464.8254 2523.28182
465.0365 2508.84364
465.2476 2612.24558
465.4587 2656.52266
465.6698 2498.89051
465.8809 2469.13352
466.0919 2488.58923
466.3030 2646.91769
466.5140 2616.40296
466.7250 2513.75876
466.9360 2567.64082
467.1469 2526.94768
467.3579 2416.37785
467.5688 2428.13319
467.7798 2503.55988
467.9907 2686.75068
468.2016 2508.55692
468.4125 2500.54936
468.6233 2415.66106
468.8342 2422.64463
469.0450 2662.80993
469.2559 2662.23650
469.4667 2639.42212
469.6775 2441.03539
469.8882 2471.30437
470.0990 2507.75821
470.3098 2665.06269
470.5205 2537.33088
470.7312 2658.44775
470.9419 2754.31317
471.1526 2604.75001
471.3633 2488.42539
471.5739 2534.29989
471.7846 2503.82611
471.9952 2359.58767
472.2058 2422.35792
472.4164 2385.59688
472.6270 2444.29166
472.8376 2489.67465
473.0481 2615.25609
473.2587 2674.66767
473.4692 2596.64006
473.6797 2545.74803
473.8902 2466.51212
474.1007 2395.22233
474.3111 2381.72622
474.5216 2338.80079
474.7320 2445.62284
474.9424 2567.86610
475.1528 2630.08339
475.3632 2474.06913
475.5736 2464.05456
475.7840 2426.41290
475.9943 2440.50292
476.2046 2471.30437
476.4149 2493.46339
476.6252 2570.65133
476.8355 2709.50362
477.0458 2730.18810
477.2561 2751.99897
477.4663 2640.91714
477.6765 2572.14635
477.8867 2527.31632
478.0969 2559.73566
478.3071 2564.03640
478.5173 2516.23680
478.7274 2588.14099
478.9375 2727.97629
479.1477 2732.31799
479.3578 2724.61763
479.5679 2804.22217
479.7779 2670.81749
479.9880 2617.97989
480.1980 2706.02207
480.4081 2769.69342
480.6181 2694.55344
480.8281 2594.51017
481.0381 2722.11910
481.2480 2754.64085
481.4580 2692.21876
481.6679 2675.28206
481.8778 2628.21974
482.0877 2691.54293
482.2976 2721.17704
482.5075 2766.90818
482.7174 2751.52793
482.9272 2740.87850
483.1371 2697.09292
483.3469 2707.27133
483.5567 2795.21111
483.7665 2799.18417
483.9762 2817.63637
484.1860 2784.60263
484.3957 2823.37068
484.6055 2759.04398
484.8152 2798.67218
485.0249 2834.45019
485.2346 2821.19983
485.4442 2825.21385
485.6539 2891.26084
485.8635 2887.59498
486.0732 2822.59245
486.2828 2865.21068
486.4924 2850.75202
486.7019 2841.22897
486.9115 2879.60790
487.1210 2911.37190
487.3306 2925.25712
487.5401 2954.62500
487.7496 2975.43236
487.9591 3032.26349
488.1686 3024.48121
488.3780 2977.62368
488.5875 3001.01149
488.7969 3012.62347
489.0063 3005.14838
489.2157 3055.34410
489.4251 3025.56663
489.6345 3055.85609
489.8438 3050.79761
490.0531 3043.62972
490.2625 3060.87361
490.4718 3053.17325
490.6811 3101.75107
490.8903 3136.13647
491.0996 3146.56063
491.3089 3144.00067
491.5181 3177.79215
491.7273 3183.03495
491.9365 3172.32407
492.1457 3221.27053
492.3549 3210.66205
492.5640 3210.31389
492.7732 3250.39264
492.9823 3247.05445
493.1914 3319.90070
493.4005 3310.56196
493.6096 3301.50994
493.8187 3287.72711
494.0277 3345.56175
494.2368 3359.97945
494.4458 3382.79382
494.6548 3399.44381
494.8638 3445.64598
495.0728 3400.38587
495.2817 3460.47328
495.4907 3421.21372
495.6996 3460.00224
495.9085 3477.30758
496.1174 3513.08559
496.3263 3492.36015
496.5352 3548.67929
496.7440 3552.77523
496.9529 3578.86635
497.1617 3611.42905
497.3705 3595.16818
497.5793 3664.43048
497.7881 3629.63550
497.9969 3677.55796
498.2056 3704.91883
498.4144 3698.79540
498.6231 3738.21880
498.8318 3746.90219
499.0405 3775.90142
499.2492 3735.57692
499.4578 3812.76486
499.6665 3797.65085
499.8751 3852.86409
500.0837 3891.52974
500.2923 3886.16406
500.5009 3883.54266
500.7095 3926.16089
500.9180 3944.77693
501.1266 3988.84921
501.3351 3988.78777
501.5436 4026.34752
501.7521 4019.11819
501.9606 4062.00266
502.1691 4077.50578
502.3775 4106.79173
502.5860 4142.07824
502.7944 4141.70960
503.0028 4201.96084
503.2112 4234.62594
503.4196 4211.44294
503.6279 4303.37625
503.8363 4243.75988
504.0446 4335.40649
504.2529 4347.87862
504.4612 4380.80995
504.6695 4399.01640
504.8778 4402.00643
505.0860 4423.71490
505.2943 4434.15954
505.5025 4516.13973
505.7107 4518.72017
505.9189 4572.21311
506.1271 4605.47212
506.3353 4630.15015
506.5434 4606.84426
506.7516 4665.08850
506.9597 4687.80047
507.1678 4706.58034
507.3759 4760.97439
507.5840 4737.50467
507.7920 4775.35113
508.0001 4777.72678
508.2081 4890.05786
508.4161 4857.69996
508.6241 4918.01264
508.8321 4903.00102
509.0401 4965.52551
509.2480 4989.71202
509.4560 4976.46166
509.6639 5047.19850
509.8718 5074.21121
510.0797 5089.59146
510.2876 5083.05844
510.4955 5229.67252
510.7033 5229.18101
510.9112 5278.82377
511.1190 5294.92080
511.3268 5268.62489
511.5346 5349.00766
511.7424 5354.39382
511.9501 5418.33140
512.1579 5448.74374
512.3656 5488.45385
512.5733 5477.25146
512.7810 5560.37851
512.9887 5602.27995
513.1964 5640.67937
513.4040 5643.25981
513.6117 5677.97288
513.8193 5702.46659
514.0269 5743.34404
514.2345 5803.77960
514.4421 5807.91650
514.6497 5828.88770
514.8572 5892.80480
515.0647 5901.07860
515.2723 5970.21802
515.4798 5988.26062
515.6873 6077.38822
515.8947 6044.76408
516.1022 6058.48547
516.3097 6103.31551
516.5171 6191.50104
516.7245 6180.48297
516.9319 6210.11708
517.1393 6267.46020
517.3467 6308.39910
517.5540 6330.92676
517.7614 6385.91472
517.9687 6348.66217
518.1760 6411.53481
518.3833 6454.31687
518.5906 6463.71705
518.7978 6561.32324
519.0051 6531.23858
519.2123 6633.41174
519.4196 6564.31328
519.6268 6655.69364
519.8340 6689.60800
520.0411 6745.76331
520.2483 6820.28889
520.4554 6813.08004
520.6626 6895.34694
520.8697 6876.07556
521.0768 6986.68635
521.2839 7008.12858
521.4909 7047.79774
521.6980 7152.08031
521.9050 7149.35651
522.1121 7205.08174
522.3191 7233.97858
522.5261 7254.49922
522.7331 7291.11690
522.9400 7412.27474
523.1470 7410.88212
523.3539 7435.86734
523.5608 7472.03446
523.7677 7488.56157
523.9746 7535.82869
524.1815 7579.73714
524.3884 7616.49818
524.5952 7570.41888
524.8020 7727.60048
525.0089 7654.50848
525.2157 7718.42558
525.4225 7747.11763
525.6292 7755.43238
525.8360 7798.39876
526.0427 7851.44115
526.2494 7891.76566
526.4562 7942.18665
526.6629 7879.37545
526.8695 7935.12116
527.0762 8010.46593
527.2829 8007.06630
527.4895 8168.87631
527.6961 8183.84696
527.9027 8233.79692
528.1093 8211.74030
528.3159 8222.84029
528.5224 8240.90337
528.7290 8371.13370
528.9355 8305.27103
529.1420 8465.74986
529.3485 8357.20752
529.5550 8451.00449
529.7615 8429.41890
529.9680 8539.96825
530.1744 8534.97120
530.3808 8574.23077
530.5872 8527.84427
530.7936 8555.40993
531.0000 8622.00988
531.2064 8631.77869
531.4127 8630.65230
531.6191 8699.36166
531.8254 8688.95798
532.0317 8735.63118
532.2380 8683.98141
532.4443 8787.03520
532.6505 8643.43163
532.8568 8781.50568
533.0630 8848.51522
533.2692 8788.05918
533.4754 8836.59604
533.6816 8893.52957
533.8878 8866.55782
534.0939 8927.97641
534.3001 8881.34416
534.5062 8909.36037
534.7123 8899.24341
534.9184 8873.82811
535.1245 8871.00192
535.3306 8867.21318
535.5366 8909.44229
535.7426 8958.32730
535.9487 9004.77524
536.1547 8873.84859
536.3607 8932.40002
536.5666 8890.19138
536.7726 8911.53122
536.9785 8911.42882
537.1845 8977.92637
537.3904 8879.99250
537.5963 8928.46792
537.8022 8905.16204
538.0080 8984.90994
538.2139 8942.74226
538.4197 8971.43430
538.6256 8919.53878
538.8314 8905.89930
539.0372 8885.35818
539.2430 8982.26806
539.4487 8785.90882
539.6545 8941.57492
539.8602 8825.63941
540.0659 8851.21854
540.2716 8923.79855
540.4773 8840.11855
540.6830 8906.82089
540.8887 8857.36245
541.0943 8760.35017
541.2999 8710.58452
541.5056 8717.17898
541.7112 8721.11108
541.9167 8629.95600
542.1223 8711.11700
542.3279 8632.16780
542.5334 8610.09070
542.7389 8624.52888
542.9444 8639.31521
543.1499 8596.59458
543.3554 8490.89892
543.5609 8521.31125
543.7663 8543.67507
543.9718 8377.66672
544.1772 8420.08016
544.3826 8335.60145
544.5880 8401.99659
544.7934 8313.83154
544.9987 8289.58359
545.2041 8325.11585
545.4094 8193.43146
545.6147 8174.09863
545.8200 8174.40583
546.0253 8098.65146
546.2306 8093.16291
546.4358 7974.85175
546.6411 8008.19268
546.8463 7911.22136
547.0515 7957.17778
547.2567 7887.28061
547.4619 7845.44061
547.6670 7815.19211
547.8722 7736.73442
548.0773 7771.97997
548.2824 7675.35680
548.4876 7594.23676
548.6926 7612.58656
548.8977 7592.90558
549.1028 7563.45579
549.3078 7483.38021
549.5129 7434.08560
549.7179 7360.42017
549.9229 7316.45028
550.1279 7240.63447
550.3328 7228.75626
550.5378 7065.47171
550.7427 7098.89456
550.9476 7061.70345
551.1526 6904.68568
551.3575 6959.28453
551.5623 6853.60934
551.7672 6748.42567
551.9720 6723.13325
552.1769 6651.86394
552.3817 6662.71817
552.5865 6519.25796
552.7913 6472.05228
552.9961 6392.77541
553.2008 6383.04756
553.4056 6369.28521
553.6103 6269.61057
553.8150 6279.95281
554.0197 6240.75469
554.2244 6156.70605
554.4291 6082.63103
554.6337 6077.34727
554.8384 6030.48974
555.0430 5950.51656
555.2476 5878.77622
555.4522 5824.83272
555.6568 5804.06632
555.8613 5765.25731
556.0659 5790.11965
556.2704 5664.92732
556.4750 5679.75461
556.6795 5635.00650
556.8839 5558.12575
557.0884 5554.13221
557.2929 5508.95402
557.4973 5460.58100
557.7018 5421.50575
557.9062 5406.14599
558.1106 5371.35100
558.3150 5328.93757
558.5193 5338.07151
558.7237 5284.55808
558.9280 5259.32711
559.1323 5236.73801
559.3367 5203.11037
559.5410 5189.16370
559.7452 5113.98277
559.9495 5152.58698
560.1537 5126.16818
560.3580 5079.18778
560.5622 5111.25897
560.7664 5106.22096
560.9706 5058.72857
561.1748 5094.62946
561.3789 5105.42226
561.5831 5080.04792
561.7872 5097.55806
561.9913 5078.88058
562.1954 5057.25403
562.3995 5083.42707
562.6036 5092.90917
562.8076 5007.85703
563.0117 5085.86415
563.2157 5094.58850
563.4197 5112.22151
563.6237 5141.95802
563.8277 5093.62596
564.0316 5069.00937
564.2356 5107.92078
564.4395 5133.88902
564.6434 5155.86373
564.8473 5194.48842
565.0512 5188.87698
565.2551 5203.04893
565.4590 5259.94150
565.6628 5288.75642
565.8666 5324.20676
566.0705 5348.27039
566.2743 5352.81688
566.4780 5389.98751
566.6818 5415.93528
566.8856 5476.12508
567.0893 5487.24555
567.2930 5527.34478
567.4967 5558.45342
567.7004 5617.18917
567.9041 5682.39649
568.1078 5690.15829
568.3114 5751.51544
568.5151 5797.88145
568.7187 5759.66635
568.9223 5851.90687
569.1259 5917.93338
569.3295 6017.97665
569.5330 6080.91073
569.7366 6110.36052
569.9401 6171.59479
570.1436 6217.38737
570.3471 6344.83246
570.5506 6357.46843
570.7541 6408.60621
570.9575 6502.71037
571.1609 6505.61849
571.3644 6626.65344
571.5678 6710.92736
571.7712 6778.46937
571.9746 6858.54495
572.1779 6887.58514
572.3813 6924.57146
572.5846 7085.82852
572.7879 7127.60708
572.9912 7235.35072
573.1945 7277.96895
573.3978 7324.80599
573.6010 7430.80885
573.8043 7578.16020
574.0075 7537.81522
574.2107 7658.80921
574.4139 7703.90549
574.6171 7795.79784
574.8203 7805.19802
575.0234 7971.75932
575.2266 7958.05841
575.4297 8054.55870
575.6328 8119.21307
575.8359 8214.54601
576.0390 8125.80753
576.2420 8235.00522
576.4451 8272.68785
576.6481 8457.04599
576.8512 8642.28477
577.0542 8520.45111
577.2571 8725.04318
577.4601 8766.86271
577.6631 8794.08021
577.8660 8877.53494
578.0689 8802.23113
578.2719 8948.06698
578.4748 9055.31910
578.6776 9073.27979
578.8805 9143.15648
579.0834 9186.40958
579.2862 9331.03714
579.4890 9442.01656
579.6918 9617.17933
579.8946 9539.64323
580.0974 9685.15141
580.3002 9737.57941
580.5029 9727.95396
580.7057 9873.50310
580.9084 9814.23488
581.1111 10012.51922
581.3138 10043.58690
581.5164 10037.13580
581.7191 10116.45363
581.9217 10176.17240
582.1244 10221.16628
582.3270 10298.41566
582.5296 10438.37384
582.7322 10527.68576
582.9347 10593.99899
583.1373 10526.39554
583.3398 10620.58162
583.5424 10700.18617
583.7449 10763.95991
583.9474 10807.74548
584.1498 10824.72315
584.3523 11031.91614
584.5548 11013.75066
584.7572 11067.16169
584.9596 11202.92153
585.1620 11352.07510
585.3644 11241.38239
585.5668 11336.59245
585.7691 11465.20489
585.9715 11465.67593
586.1738 11636.80419
586.3761 11624.63926
586.5784 11863.39146
586.7807 11885.40712
586.9830 11956.30780
587.1852 11976.15262
587.3875 12019.67195
587.5897 12214.31090
587.7919 12194.19985
587.9941 12205.83231
588.1963 12274.88982
588.3984 12311.52798
588.6006 12280.62413
588.8027 12563.16190
589.0048 12565.37370
589.2069 12665.10978
589.4090 12795.44251
589.6111 12891.16457
589.8131 12972.96045
590.0152 13118.05903
590.2172 13028.97239
590.4192 13282.18325
590.6212 13232.21281
590.8232 13182.11949
591.0252 13448.94934
591.2271 13546.80129
591.4291 13622.71949
591.6310 13689.27848
591.8329 13731.44615
592.0348 13883.89695
592.2367 13940.01129
592.4385 14166.04560
592.6404 14368.61019
592.8422 14448.80865
593.0440 14587.76332
593.2458 14747.85304
593.4476 14783.38530
593.6494 14869.72766
593.8512 15056.83009
594.0529 15164.55324
594.2546 15261.27881
594.4563 15314.07544
594.6580 15268.69245
594.8597 15392.73792
595.0614 15515.51365
595.2630 15661.24710
595.4647 15781.38095
595.6663 15801.90160
595.8679 15968.66769
596.0695 16220.52689
596.2711 16234.16636
596.4727 16330.07274
596.6742 16503.20802
596.8757 16704.99438
597.0773 16852.46861
597.2788 16823.83800
597.4802 17023.33064
597.6817 17173.89730
597.8832 17110.49219
598.0846 17279.79777
598.2860 17359.03368
598.4875 17278.58947
598.6889 17615.56224
598.8902 17739.75107
599.0916 17857.40687
599.2930 17812.29012
599.4943 18104.96534
599.6956 18180.80162
599.8969 18197.59496
600.0982 18255.32720
600.2995 18236.73165
600.5008 18614.13133
600.7020 18602.90846
600.9032 18794.68025
601.1045 18954.54469
601.3057 18910.08329
601.5068 19149.32700
601.7080 19273.94590
601.9092 19189.56959
602.1103 19582.18568
602.3115 19672.52158
602.5126 19724.49902
602.7137 19765.82703
602.9147 19917.76583
603.1158 20055.55317
603.3169 20242.06169
603.5179 20361.80642
603.7189 20340.93762
603.9199 20520.62640
604.1209 20534.83930
604.3219 20698.36960
604.5229 20941.21774
604.7238 20930.75262
604.9247 21026.63851
605.1257 21169.75057
605.3266 21271.57558
605.5275 21287.34494
605.7283 21507.17390
605.9292 21685.83870
606.1300 21375.55095
606.3309 21585.81590
606.5317 21815.72087
606.7325 22129.71544
606.9332 22196.52018
607.1340 22293.61438
607.3348 22274.50683
607.5355 22269.63267
607.7362 22584.54882
607.9369 22389.33644
608.1376 22680.39376
608.3383 22772.57283
608.5390 22954.28910
608.7396 23021.36008
608.9402 23283.99159
609.1409 23332.93804
609.3415 23219.21434
609.5421 23282.39417
609.7426 23460.69033
609.9432 23579.14485
610.1437 23467.75583
610.3443 24025.78635
610.5448 23985.21609
610.7453 24181.86205
610.9457 24019.43765
611.1462 24188.94802
611.3467 24162.97978
611.5471 24555.82114
611.7475 24376.78771
611.9479 24848.14820
612.1483 24503.61842
612.3487 25015.59013
612.5491 24773.23350
612.7494 25385.53520
612.9497 25015.40581
613.1501 25310.47715
613.3504 25359.07545
613.5506 25829.37099
613.7509 25652.75416
613.9512 25576.20109
614.1514 25643.90694
614.3516 26013.60626
614.5519 25962.63232
614.7521 26190.44836
614.9522 26155.89913
615.1524 26188.05224
615.3526 26485.00770
615.5527 26855.62861
615.7528 26542.76042
615.9529 26646.51052
616.1530 26961.54955
616.3531 27290.61717
616.5532 27453.30781
616.7532 27071.50500
616.9532 27205.11448
617.1533 27122.94997
617.3533 27388.20288
617.5532 27295.83949
617.7532 27483.96590
617.9532 27293.54577
618.1531 27935.46109
618.3530 27469.05669
618.5530 27804.20677
618.7528 27990.42857
618.9527 28197.25294
619.1526 28032.88297
619.3524 27996.98207
619.5523 28134.93325
619.7521 28233.07191
619.9519 28412.28966
620.1517 28474.50695
620.3515 28723.10987
620.5512 28824.70960
620.7510 28787.25225
620.9507 28747.86982
621.1504 28672.48409
621.3501 28962.06687
621.5498 29282.43062
621.7495 29237.47770
621.9492 29311.32746
622.1488 29014.82254
622.3484 29135.69366
622.5480 29179.09012
622.7476 29819.30563
622.9472 29411.98512
623.1468 29456.42604
623.3463 30310.51093
623.5459 30326.13693
623.7454 30074.62589
623.9449 30207.82578
624.1444 30430.09183
624.3439 30657.41636
624.5433 30434.18776
624.7428 30585.34834
624.9422 30485.77610
625.1416 30651.45677
625.3410 30602.05976
625.5404 30956.80891
625.7398 30829.13854
625.9391 30960.94581
626.1385 30588.99372
626.3378 30677.15878
626.5371 31333.36892
626.7364 30826.68097
626.9357 31087.30548
627.1350 31159.02534
627.3342 31172.02995
627.5335 31147.35192
627.7327 31328.14660
627.9319 31300.37615
628.1311 32023.06336
628.3303 31426.49006
628.5294 31503.71896
628.7286 31851.66885
628.9277 32269.94599
629.1268 32146.96547
629.3259 32531.98359
629.5250 32549.12509
629.7241 32531.92215
629.9231 31976.32871
630.1222 32574.37655
630.3212 32599.89424
630.5202 32316.39392
630.7192 32587.58595
630.9182 32433.27150
631.1171 32607.28740
631.3161 32559.22158
631.5150 32237.85432
631.7140 32612.98076
631.9129 32969.04060
632.1118 33134.43456
632.3106 33041.06767
632.5095 33167.40686
632.7083 32831.29423
632.9072 32942.49893
633.1060 33097.12057
633.3048 32757.75167
633.5036 32856.36136
633.7023 33151.59654
633.9011 33579.94968
634.0998 33871.70331
634.2986 33422.52233
634.4973 33796.93197
634.6960 33576.73437
634.8947 33608.35501
635.0933 33668.81105
635.2920 33769.44823
635.4906 33519.24789
635.6892 33843.44134
635.8878 34113.13835
636.0864 34320.08559
636.2850 33958.68054
636.4836 34069.88525
636.6821 34024.68658
636.8806 34275.05076
637.0792 34397.06873
637.2777 34425.45358
637.4761 34342.32653
637.6746 34457.15614
637.8731 34901.99543
638.0715 34498.60703
638.2699 34768.46787
638.4683 34694.20852
638.6667 34449.59913
638.8651 34677.70189
639.0635 34879.20154
639.2618 34792.57246
639.4602 34947.43986
639.6585 34696.33841
639.8568 35012.89294
640.0551 34827.08073
640.2534 34740.24686
640.4516 35044.00158
640.6499 35170.13598
640.8481 35615.38486
641.0463 35561.19561
641.2445 35841.05054
641.4427 35486.23995
641.6409 35503.21762
641.8390 35471.45362
642.0372 35833.65737
642.2353 35687.30953
642.4334 35588.61791
642.6315 35774.40964
642.8296 35653.66140
643.0277 35483.53664
643.2257 36240.50685
643.4237 36132.61985
643.6218 35874.20715
643.8198 35975.02866
644.0178 36103.53870
644.2157 35891.36913
644.4137 35970.46169
644.6116 36820.32776
644.8096 36985.14828
645.0075 36180.78808
645.2054 36677.19522
645.4033 36471.76348
645.6011 36324.26877
645.7990 36341.88130
645.9968 36715.65607
646.1947 36654.64709
646.3925 36966.55273
646.5903 36600.35543
646.7881 36956.57912
646.9858 36618.86907
647.1836 36621.53143
647.3813 36428.79709
647.5790 36581.57556
647.7767 37446.00269
