# Averages = 100
# wavelength [µm]	intensity
446.8250 14.33578
447.0374 36746.70328
447.2498 1228.45357
447.4621 1229.23180
447.6745 1233.20486
447.8868 1241.17146
448.0992 1241.43770
448.3115 1236.46113
448.5238 1247.19249
448.7360 1240.04508
448.9483 1247.72496
449.1606 1239.63548
449.3728 1264.35447
449.5850 1234.59748
449.7972 1237.46464
450.0094 1234.00357
450.2216 1253.19304
450.4337 1254.50374
450.6459 1668.68494
450.8580 1993.82046
451.0701 2015.83612
451.2822 2040.59606
451.4943 2037.66747
451.7064 2014.38206
451.9184 2013.84959
452.1305 2076.51743
452.3425 2177.64613
452.5545 2103.36630
452.7665 2090.19787
452.9785 2212.42064
453.1905 2238.08169
453.4024 2171.50222
453.6143 2263.96801
453.8263 2248.52633
454.0382 2365.91590
454.2501 2220.51012
454.4619 2210.00404
454.6738 2343.16297
454.8856 2402.18543
455.0975 2251.59828
455.3093 2259.42152
455.5211 2333.70135
455.7329 2305.76706
455.9446 2325.40708
456.1564 2342.17994
456.3681 2404.29483
456.5798 2459.67191
456.7916 2399.76882
457.0033 2396.84023
457.2149 2362.76203
457.4266 2386.96902
457.6382 2453.11841
457.8499 2411.64704
458.0615 2523.38422
458.2731 2437.61528
458.4847 2529.65100
458.6963 2544.23254
458.9078 2573.04746
459.1194 2713.29236
459.3309 2735.61522
459.5424 2590.47567
459.7539 2495.83904
459.9654 2548.49231
460.1769 2591.19246
460.3883 2593.93674
460.5998 2449.65734
460.8112 2435.23964
461.0226 2517.99806
461.2340 2620.68321
461.4454 2549.78253
461.6567 2503.21172
461.8681 2499.70970
462.0794 2462.62098
462.2907 2577.51203
462.5020 2641.59297
462.7133 2750.77019
462.9246 2802.13324
463.1359 2659.18502
463.3471 2419.85940
463.5583 2485.33296
463.7696 2812.35261
463.9808 2670.61269
464.1919 2574.60391
464.4031 2574.76775
464.6143 2719.02667
464.8254 2561.74267
465.0365 2533.58310
465.2476 2643.08799
465.4587 2689.18777
465.6698 2534.91428
465.8809 2506.07888
466.0919 2527.29584
466.3030 2683.26914
466.5140 2650.48116
466.7250 2554.32902
466.9360 2595.41128
467.1469 2551.62570
467.3579 2448.94055
467.5688 2450.64037
467.7798 2545.25652
467.9907 2717.28590
468.2016 2542.12313
468.4125 2531.86281
468.6233 2441.32211
468.8342 2451.39811
469.0450 2712.06358
469.2559 2701.08646
469.4667 2679.13224
469.6775 2470.11655
469.8882 2498.31708
470.0990 2561.29212
470.3098 2701.29126
470.5205 2576.44709
470.7312 2701.45510
470.9419 2806.80261
471.1526 2644.97212
471.3633 2525.10451
471.5739 2569.79119
471.7846 2561.08732
471.9952 2388.40260
472.2058 2451.09092
472.4164 2430.28356
472.6270 2489.81801
472.8376 2522.60599
473.0481 2668.79000
473.2587 2699.98056
473.4692 2647.40920
473.6797 2571.77772
473.8902 2504.56338
474.1007 2435.17820
474.3111 2415.84538
474.5216 2374.92696
474.7320 2484.12465
474.9424 2612.83949
475.1528 2673.97136
475.3632 2507.28718
475.5736 2496.26911
475.7840 2456.10844
475.9943 2473.37282
476.2046 2516.56448
476.4149 2532.72295
476.6252 2630.59538
476.8355 2756.66834
477.0458 2766.08899
477.2561 2791.70908
477.4663 2683.74017
477.6765 2629.71475
477.8867 2585.80630
478.0969 2593.52715
478.3071 2605.81496
478.5173 2560.45245
478.7274 2630.82066
478.9375 2784.33639
479.1477 2767.48161
479.3578 2773.95319
479.5679 2865.49740
479.7779 2716.89678
479.9880 2665.96380
480.1980 2747.86207
480.4081 2814.95353
480.6181 2763.26280
480.8281 2651.34130
481.0381 2771.94618
481.2480 2814.46201
481.4580 2739.62924
481.6679 2740.87850
481.8778 2689.33112
482.0877 2753.41207
482.2976 2790.35742
482.5075 2827.34374
482.7174 2809.07586
482.9272 2798.24210
483.1371 2747.37056
483.3469 2762.60745
483.5567 2854.29501
483.7665 2858.51382
483.9762 2873.01344
484.1860 2831.35776
484.3957 2873.81215
484.6055 2820.11441
484.8152 2861.34002
485.0249 2907.86987
485.2346 2879.62838
485.4442 2895.58206
485.6539 2958.67997
485.8635 2957.26687
486.0732 2883.35568
486.2828 2932.34310
486.4924 2920.48536
486.7019 2922.02133
486.9115 2953.23238
487.1210 2974.46981
487.3306 2993.39304
487.5401 3035.92935
487.7496 3031.66958
487.9591 3116.35309
488.1686 3093.53872
488.3780 3055.50794
488.5875 3076.62249
488.7969 3091.10163
489.0063 3076.15146
489.2157 3130.07448
489.4251 3112.21619
489.6345 3140.45768
489.8438 3129.05049
490.0531 3125.89662
490.2625 3160.87593
490.4718 3123.84865
490.6811 3185.59491
490.8903 3231.01886
491.0996 3238.55538
491.3089 3233.35354
491.5181 3271.40480
491.7273 3281.48081
491.9365 3267.41126
492.1457 3308.16584
492.3549 3320.63797
492.5640 3313.08097
492.7732 3347.95787
492.9823 3346.60621
493.1914 3410.23660
493.4005 3412.89896
493.6096 3399.75100
493.8187 3395.73698
494.0277 3450.13103
494.2368 3462.00925
494.4458 3494.98155
494.6548 3536.98539
494.8638 3554.76176
495.0728 3511.48818
495.2817 3551.58741
495.4907 3516.64906
495.6996 3587.85693
495.9085 3591.35896
496.1174 3638.62608
496.3263 3626.21539
496.5352 3683.66091
496.7440 3676.24726
496.9529 3709.93635
497.1617 3730.14980
497.3705 3711.90240
497.5793 3779.71065
497.7881 3756.50716
497.9969 3804.53203
498.2056 3826.22002
498.4144 3861.50652
498.6231 3879.03713
498.8318 3893.39339
499.0405 3924.70683
499.2492 3892.96332
499.4578 3965.09278
499.6665 3968.08281
499.8751 4038.02094
500.0837 4039.63884
500.2923 4046.86817
500.5009 4045.45507
500.7095 4108.32771
500.9180 4118.54708
501.1266 4166.77674
501.3351 4171.56899
501.5436 4224.59090
501.7521 4212.97891
501.9606 4264.66965
502.1691 4275.46244
502.3775 4302.51611
502.5860 4329.26258
502.7944 4327.58325
503.0028 4405.38558
503.2112 4436.61710
503.4196 4413.65937
503.6279 4518.78161
503.8363 4462.48295
504.0446 4563.55020
504.2529 4571.76256
504.4612 4615.28190
504.6695 4630.76454
504.8778 4637.25660
505.0860 4679.01468
505.2943 4677.17151
505.5025 4776.78471
505.7107 4776.08840
505.9189 4849.65144
506.1271 4877.21710
506.3353 4892.61782
506.5434 4885.73665
506.7516 4953.09434
506.9597 4960.69230
507.1678 4995.15962
507.3759 5043.73744
507.5840 5031.44963
507.7920 5096.37023
508.0001 5083.83667
508.2081 5213.49357
508.4161 5173.08714
508.6241 5245.38044
508.8321 5227.64503
509.0401 5305.14017
509.2480 5325.08738
509.4560 5317.57134
509.6639 5396.93013
509.8718 5438.95445
510.0797 5453.12639
510.2876 5436.88600
510.4955 5604.57368
510.7033 5632.42605
510.9112 5686.65627
511.1190 5696.85515
511.3268 5682.68321
511.5346 5769.14845
511.7424 5793.17112
511.9501 5859.46387
512.1579 5893.66495
512.3656 5936.05790
512.5733 5913.30497
512.7810 6046.54582
512.9887 6063.38012
513.1964 6126.31420
513.4040 6146.46621
513.6117 6187.71230
513.8193 6213.41431
514.0269 6272.41629
514.2345 6338.25848
514.4421 6362.11732
514.6497 6405.63666
514.8572 6466.15413
515.0647 6461.48476
515.2723 6549.67030
515.4798 6576.27341
515.6873 6699.37681
515.8947 6663.94695
516.1022 6698.00468
516.3097 6736.75224
516.5171 6841.09625
516.7245 6837.43039
516.9319 6917.62884
517.1393 6965.48987
517.3467 7027.21565
517.5540 7063.25990
517.7614 7129.55265
517.9687 7101.41356
518.1760 7178.33527
518.3833 7226.76973
518.5906 7264.30899
518.7978 7399.43397
519.0051 7370.04562
519.2123 7496.09810
519.4196 7413.44208
519.6268 7528.70176
519.8340 7583.25965
520.0411 7661.55349
520.2483 7744.61910
520.4554 7756.23109
520.6626 7838.92807
520.8697 7861.51716
521.0768 8000.67664
521.2839 8018.71924
521.4909 8051.54818
521.6980 8224.08955
521.9050 8247.62071
522.1121 8316.37102
522.3191 8355.42578
522.5261 8407.23939
522.7331 8487.39689
522.9400 8629.95600
523.1470 8628.17426
523.3539 8680.00835
523.5608 8725.30942
523.7677 8765.59297
523.9746 8859.63569
524.1815 8941.20629
524.3884 9001.12985
524.5952 8974.54722
524.8020 9156.30444
525.0089 9093.08365
525.2157 9225.62819
525.4225 9241.37707
525.6292 9277.23700
525.8360 9333.10559
526.0427 9441.42265
526.2494 9515.94824
526.4562 9618.10092
526.6629 9568.72439
526.8695 9636.00016
527.0762 9802.21331
527.2829 9783.22864
527.4895 10009.40631
527.6961 10048.58395
527.9027 10107.58593
528.1093 10120.57005
528.3159 10175.98808
528.5224 10217.60281
528.7290 10451.52180
528.9355 10383.91835
529.1420 10599.61042
529.3485 10502.47526
529.5550 10683.70002
529.7615 10655.25373
529.9680 10821.87647
530.1744 10862.52865
530.3808 10945.28707
530.5872 10891.07733
530.7936 11006.45989
531.0000 11078.26168
531.2064 11135.83008
531.4127 11181.25402
531.6191 11307.53178
531.8254 11310.54229
532.0317 11428.15714
532.2380 11420.10862
532.4443 11606.98577
532.6505 11434.66968
532.8568 11684.58330
533.0630 11821.18282
533.2692 11794.80498
533.4754 11896.62999
533.6816 12068.02449
533.8878 12039.84444
534.0939 12185.12735
534.3001 12187.64635
534.5062 12239.66475
534.7123 12292.05180
534.9184 12311.01599
535.1245 12325.31081
535.3306 12416.77309
535.5366 12535.02281
535.7426 12653.17012
535.9487 12815.45117
536.1547 12656.28304
536.3607 12782.06928
536.5666 12767.46726
536.7726 12877.95518
536.9785 12966.75510
537.1845 13156.84756
537.3904 13054.49008
537.5963 13175.09496
537.8022 13225.67979
538.0080 13349.80718
538.2139 13381.85789
538.4197 13508.70907
538.6256 13506.04671
538.8314 13589.31712
539.0372 13586.77764
539.2430 13800.19646
539.4487 13544.42565
539.6545 13868.74198
539.8602 13788.52304
540.0659 13885.43292
540.2716 14112.67553
540.4773 14080.72722
540.6830 14306.20858
540.8887 14284.00860
541.0943 14213.55848
541.2999 14205.98099
541.5056 14269.07891
541.7112 14367.31997
541.9167 14327.40506
542.1223 14494.74458
542.3279 14491.05824
542.5334 14535.66300
542.7389 14737.12169
542.9444 14811.27863
543.1499 14842.18248
543.3554 14803.51683
543.5609 14904.46121
543.7663 15050.50186
543.9718 14860.98284
544.1772 15084.62102
544.3826 15000.32663
544.5880 15233.63123
544.7934 15216.10062
544.9987 15247.39358
545.2041 15509.24686
545.4094 15319.72784
545.6147 15408.93735
545.8200 15573.86028
546.0253 15549.24369
546.2306 15650.06520
546.4358 15543.87802
546.6411 15714.37141
546.8463 15667.88252
547.0515 15865.67535
547.2567 15850.15174
547.4619 15933.64743
547.6670 16007.10807
547.8722 15979.23521
548.0773 16210.14369
548.2824 16068.28089
548.4876 16044.44254
548.6926 16210.04129
548.8977 16326.01776
549.1028 16400.42047
549.3078 16357.98655
549.5129 16380.92380
549.7179 16385.08118
549.9229 16421.00255
550.1279 16358.53950
550.3328 16419.77377
550.5378 16232.93758
550.7427 16414.38761
550.9476 16424.36122
551.1526 16187.10404
551.3575 16455.32651
551.5623 16383.03321
551.7672 16242.76783
551.9720 16331.60872
552.1769 16298.86170
552.3817 16447.64662
552.5865 16233.34718
552.7913 16291.61189
552.9961 16201.39886
553.2008 16248.35879
553.4056 16396.89796
553.6103 16285.93901
553.8150 16428.21140
554.0197 16443.26397
554.2244 16305.90671
554.4291 16170.26974
554.6337 16328.14765
554.8384 16272.21762
555.0430 16219.25715
555.2476 16117.61646
555.4522 16009.48371
555.6568 16054.49806
555.8613 16061.50212
556.0659 16155.68820
556.2704 15936.59650
556.4750 15994.86121
556.6795 16008.68500
556.8839 15815.21340
557.0884 15927.89264
557.2929 15864.97904
557.4973 15763.70698
557.7018 15717.09521
557.9062 15639.47720
558.1106 15601.56930
558.3150 15521.61660
558.5193 15595.40491
558.7237 15492.39208
558.9280 15343.89387
559.1323 15253.72180
559.3367 15209.34232
559.5410 15163.83645
559.7452 14895.77782
559.9495 15097.23651
560.1537 15009.01002
560.3580 14921.09072
560.5622 14984.27055
560.7664 14920.76304
560.9706 14792.84692
561.1748 14801.30503
561.3789 14771.83476
561.5831 14674.35144
561.7872 14618.56478
561.9913 14609.65611
562.1954 14434.28855
562.3995 14464.65992
562.6036 14352.18548
562.8076 14135.22367
563.0117 14259.80161
563.2157 14141.96149
563.4197 14167.23342
563.6237 14048.77891
563.8277 13868.29142
564.0316 13678.64952
564.2356 13742.81238
564.4395 13692.84194
564.6434 13567.21954
564.8473 13599.43409
565.0512 13474.03696
565.2551 13413.56044
565.4590 13400.16673
565.6628 13313.59909
565.8666 13258.26297
566.0705 13115.66291
566.2743 12982.74974
566.4780 12888.56365
566.6818 12828.74249
566.8856 12866.54799
567.0893 12655.60721
567.2930 12560.04899
567.4967 12443.15093
567.7004 12408.41738
567.9041 12400.92181
568.1078 12280.25550
568.3114 12183.79617
568.5151 12142.63200
568.7187 11823.08743
568.9223 11926.57129
569.1259 11834.67893
569.3295 11868.32706
569.5330 11738.81352
569.7366 11637.56194
569.9401 11595.04611
570.1436 11497.35800
570.3471 11539.23896
570.5506 11430.10271
570.7541 11260.73569
570.9575 11244.10619
571.1609 11069.53733
571.3644 11075.74267
571.5678 10964.76325
571.7712 10929.74298
571.9746 10827.40598
572.1779 10631.80449
572.3813 10532.08889
572.5846 10555.62005
572.7879 10465.18175
572.9912 10444.70206
573.1945 10342.36507
573.3978 10184.36428
573.6010 10132.91930
573.8043 10163.49547
574.0075 9901.94939
574.2107 9869.40716
574.4139 9721.68718
574.6171 9648.06270
574.8203 9455.75843
575.0234 9460.50972
575.2266 9266.15749
575.4297 9217.70255
575.6328 9131.68786
575.8359 9071.88717
576.0390 8822.17834
576.2420 8777.22543
576.4451 8603.23000
576.6481 8608.86192
576.8512 8651.84878
577.0542 8400.31726
577.2571 8413.62906
577.4601 8291.22196
577.6631 8143.76821
577.8660 8052.10113
578.0689 7910.44313
578.2719 7879.80552
578.4748 7814.45484
578.6776 7685.84240
578.8805 7652.11236
579.0834 7515.90195
579.2862 7506.09218
579.4890 7472.07542
579.6918 7430.50166
579.8946 7245.28336
580.0974 7237.68540
580.3002 7146.75559
580.5029 7006.42877
580.7057 7029.05882
580.9084 6864.01302
581.1111 6865.34420
581.3138 6761.79890
581.5164 6676.02997
581.7191 6604.26915
581.9217 6551.16532
582.1244 6486.38806
582.3270 6410.38794
582.5296 6406.04625
582.7322 6361.83060
582.9347 6298.85557
583.1373 6208.21247
583.3398 6185.52097
583.5424 6126.80571
583.7449 6081.56608
583.9474 6011.97610
584.1498 5943.00052
584.3523 5952.31877
584.5548 5868.31110
584.7572 5839.12754
584.9596 5835.13400
585.1620 5837.67348
585.3644 5724.25697
585.5668 5689.44150
585.7691 5724.99424
585.9715 5664.16957
586.1738 5665.07068
586.3761 5583.58200
586.5784 5636.99302
586.7807 5593.33033
586.9830 5562.71320
587.1852 5528.57356
587.3875 5502.11380
587.5897 5513.43907
587.7919 5491.11621
587.9941 5439.09780
588.1963 5443.60334
588.3984 5402.33677
588.6006 5363.38440
588.8027 5426.50280
589.0048 5391.62589
589.2069 5379.64527
589.4090 5414.11259
589.6111 5397.15540
589.8131 5409.77089
590.0152 5422.01775
590.2172 5367.43938
590.4192 5444.23821
590.6212 5396.25430
590.8232 5363.77351
591.0252 5419.70354
591.2271 5411.45023
591.4291 5467.23690
591.6310 5430.02530
591.8329 5452.96255
592.0348 5490.54278
592.2367 5493.53281
592.4385 5558.20767
592.6404 5623.08732
592.8422 5612.74508
593.0440 5650.67346
593.2458 5727.59516
593.4476 5719.17801
593.6494 5738.96139
593.8512 5822.23180
594.0529 5845.02569
594.2546 5885.92363
594.4563 5863.25261
594.6580 5877.58839
594.8597 5920.10423
595.0614 5982.83351
595.2630 6038.10818
595.4647 6094.50924
595.6663 6112.24465
595.8679 6205.95970
596.0695 6277.41333
596.2711 6295.49690
596.4727 6345.97933
596.6742 6466.44085
596.8757 6505.39321
597.0773 6574.63504
597.2788 6584.09665
597.4802 6660.07629
597.6817 6738.88213
597.8832 6764.54318
598.0846 6806.95661
598.2860 6869.25582
598.4875 6877.69345
598.6889 7024.53281
598.8902 7087.28258
599.0916 7184.43821
599.2930 7192.26145
599.4943 7322.30747
599.6956 7398.96294
599.8969 7459.52138
600.0982 7504.78148
600.2995 7531.32316
600.5008 7704.70419
600.7020 7755.10470
600.9032 7863.62657
601.1045 7957.79217
601.3057 7974.93367
601.5068 8135.20770
601.7080 8214.68937
601.9092 8203.73274
602.1103 8422.57868
602.3115 8503.06385
602.5126 8543.16308
602.7137 8608.65712
602.9147 8731.63764
603.1158 8858.46835
603.3169 8997.99646
603.5179 9137.56553
603.7189 9148.41976
603.9199 9283.91338
604.1209 9320.92017
604.3219 9465.56820
604.5229 9575.42125
604.7238 9657.17616
604.9247 9783.67919
605.1257 9901.58075
605.3266 9968.05782
605.5275 10070.92729
605.7283 10183.64749
605.9292 10361.10398
606.1300 10257.41532
606.3309 10421.86721
606.5317 10609.21539
606.7325 10793.59402
606.9332 10885.50686
607.1340 10986.08260
607.3348 11085.92108
607.5355 11126.36846
607.7362 11373.10774
607.9369 11341.48710
608.1376 11573.27620
608.3383 11695.21226
608.5390 11821.12138
608.7396 11897.69493
608.9402 12125.59290
609.1409 12211.75094
609.3415 12202.10501
609.5421 12362.52240
609.7426 12474.03430
609.9432 12592.75505
610.1437 12629.72088
610.3443 12974.27115
610.5448 13041.23972
610.7453 13198.74900
610.9457 13187.81285
611.1462 13333.79206
611.3467 13436.86633
611.5471 13678.60856
611.7475 13653.09087
611.9479 13988.13855
612.1483 13887.25561
612.3487 14250.05328
612.5491 14186.56625
612.7494 14640.84668
612.9497 14523.84622
613.1501 14721.41377
613.3504 14803.98787
613.5506 15155.13259
613.7509 15157.93830
613.9512 15131.72430
614.1514 15238.46444
614.3516 15599.74660
614.5519 15578.05861
614.7521 15824.85933
614.9522 15850.09030
615.1524 15933.87270
615.3526 16209.69314
615.5527 16515.53679
615.7528 16408.98098
615.9529 16526.12479
616.1530 16818.39041
616.3531 17103.59054
616.5532 17269.41457
616.7532 17140.43349
616.9532 17282.43965
617.1533 17255.22214
617.3533 17495.85847
617.5532 17594.48865
617.7532 17748.55733
617.9532 17720.23393
618.1531 18215.84236
618.3530 17971.37633
618.5530 18296.06130
618.7528 18477.28605
618.9527 18617.79719
619.1526 18636.29035
619.3524 18677.39308
619.5523 18829.39332
619.7521 18995.72934
619.9519 19203.82345
620.1517 19379.29341
620.3515 19596.95153
620.5512 19745.49070
620.7510 19748.31690
620.9507 19792.59398
621.1504 19791.59048
621.3501 20057.78546
621.5498 20336.30921
621.7495 20408.97114
621.9492 20576.04443
622.1488 20419.68202
622.3484 20611.04422
622.5480 20669.94380
622.7476 21216.52618
622.9472 20967.75941
623.1468 21032.00419
623.3463 21734.92851
623.5459 21808.90114
623.7454 21715.75952
623.9449 21922.33813
624.1444 22075.13707
624.3439 22337.39995
624.5433 22265.49577
624.7428 22437.52515
624.9422 22350.17928
625.1416 22522.18817
625.3410 22549.69239
625.5404 22887.46388
625.7398 22884.45337
625.9391 23080.21870
626.1385 22890.82255
626.3378 23073.74712
626.5371 23610.84740
626.7364 23283.86871
626.9357 23501.19915
627.1350 23610.29445
627.3342 23697.10785
627.5335 23681.87096
627.7327 23936.55635
627.9319 23995.80409
628.1311 24664.24061
628.3303 24291.71509
628.5294 24353.39991
628.7286 24671.26514
628.9277 24998.96062
629.1268 25039.51040
629.3259 25336.03580
629.5250 25400.11674
629.7241 25419.83868
629.9231 25059.15042
630.1222 25701.08623
630.3212 25737.15096
630.5202 25559.10055
630.7192 25858.96414
630.9182 25766.37547
631.1171 25920.52608
631.3161 25992.45074
631.5150 25793.55202
631.7140 26137.16021
631.9129 26421.95075
632.1118 26603.76941
632.3106 26583.08493
632.5095 26760.11135
632.7083 26582.85965
632.9072 26754.17224
633.1060 26902.40422
633.3048 26705.41010
633.5036 26810.12274
633.7023 27099.72600
633.9011 27513.94816
634.0998 27776.33392
634.2986 27505.69485
634.4973 27846.41541
634.6960 27709.91829
634.8947 27842.38091
635.0933 27873.57148
635.2920 28025.94035
635.4906 27863.57739
635.6892 28244.80677
635.8878 28418.49500
636.0864 28695.72853
636.2850 28369.60999
636.4836 28506.88533
636.6821 28482.90362
636.8806 28822.62068
637.0792 28984.30781
637.2777 29031.34965
637.4761 28941.66910
637.6746 29069.50331
637.8731 29564.66119
638.0715 29292.11751
638.2699 29551.16508
638.4683 29531.89369
638.6667 29395.45801
638.8651 29605.51817
639.0635 29810.33552
639.2618 29795.32391
639.4602 29938.78412
639.6585 29799.91136
639.8568 30177.74112
640.0551 30036.86135
640.2534 29978.02320
640.4516 30268.97812
640.6499 30378.11438
640.8481 30786.45887
641.0463 30823.21991
641.2445 31114.64586
641.4427 30834.81141
641.6409 30918.45045
641.8390 30975.03583
642.0372 31225.93248
642.2353 31137.86983
642.4334 31147.94583
642.6315 31324.89033
642.8296 31174.48751
643.0277 31052.79720
643.2257 31834.69119
643.4237 31737.74035
643.6218 31591.86354
643.8198 31708.96639
644.0178 31839.38104
644.2157 31693.19703
644.4137 31784.61836
644.6116 32643.02446
644.8096 32813.70217
645.0075 32168.59202
645.2054 32550.39483
645.4033 32374.26952
645.6011 32340.78523
645.7990 32343.87766
645.9968 32702.53843
646.1947 32745.44338
646.3925 33003.50792
646.5903 32706.01998
646.7881 33057.86101
