# Averages = 100
# wavelength [µm]	intensity
446.8250 14.33578
447.0374 36746.70328
447.2498 1224.09140
447.4621 1220.71225
447.6745 1230.44010
447.8868 1234.67940
448.0992 1240.43419
448.3115 1233.65542
448.5238 1252.68105
448.7360 1236.01058
448.9483 1251.53418
449.1606 1242.91223
449.3728 1262.18362
449.5850 1232.65191
449.7972 1249.17902
450.0094 1239.06205
450.2216 1249.69101
450.4337 1249.46573
450.6459 1704.85207
450.8580 2056.34494
451.0701 2085.54898
451.2822 2113.95430
451.4943 2093.53605
451.7064 2083.97204
451.9184 2075.71873
452.1305 2147.93010
452.3425 2251.08629
452.5545 2180.82048
452.7665 2167.28341
452.9785 2294.01172
453.1905 2330.91611
453.4024 2256.49293
453.6143 2340.45965
453.8263 2339.51758
454.0382 2454.77726
454.2501 2302.08071
454.4619 2294.35987
454.6738 2438.82359
454.8856 2497.94844
455.0975 2345.66149
455.3093 2348.79488
455.5211 2444.80365
455.7329 2383.83563
455.9446 2435.81307
456.1564 2438.27063
456.3681 2493.03332
456.5798 2574.21480
456.7916 2505.81264
457.0033 2498.56283
457.2149 2460.49110
457.4266 2484.69809
457.6382 2548.26704
457.8499 2515.33570
458.0615 2647.24537
458.2731 2540.89435
458.4847 2641.63393
458.6963 2668.35992
458.9078 2696.92909
459.1194 2852.98431
459.3309 2867.36105
459.5424 2709.29882
459.7539 2601.53470
459.9654 2663.56768
460.1769 2731.76504
460.3883 2716.99918
460.5998 2582.14044
460.8112 2554.12423
461.0226 2623.75516
461.2340 2749.84860
461.4454 2673.50032
461.6567 2625.63930
461.8681 2617.01735
462.0794 2568.29617
462.2907 2694.67632
462.5020 2768.25984
462.7133 2871.78466
462.9246 2944.32371
463.1359 2776.36980
463.3471 2525.55506
463.5583 2603.66459
463.7696 2956.59105
463.9808 2814.07290
464.1919 2694.45105
464.4031 2694.92208
464.6143 2846.65608
464.8254 2682.73666
465.0365 2649.60053
465.2476 2779.66703
465.4587 2834.08155
465.6698 2647.28633
465.8809 2628.91605
466.0919 2635.89962
466.3030 2830.33377
466.5140 2786.56868
466.7250 2682.83906
466.9360 2735.04179
467.1469 2671.92339
467.3579 2562.04987
467.5688 2564.48695
467.7798 2662.46177
467.9907 2860.15220
468.2016 2668.74904
468.4125 2658.55015
468.6233 2548.73807
468.8342 2573.94856
469.0450 2834.34779
469.2559 2823.20684
469.4667 2822.96108
469.6775 2590.22992
469.8882 2613.59724
470.0990 2673.04977
470.3098 2842.56015
470.5205 2714.78737
470.7312 2847.68007
470.9419 2952.06503
471.1526 2782.18603
471.3633 2651.97617
471.5739 2700.34920
471.7846 2677.61674
471.9952 2514.41411
472.2058 2587.81331
472.4164 2563.01241
472.6270 2616.48488
472.8376 2654.04462
473.0481 2796.68565
473.2587 2862.95791
473.4692 2777.10706
473.6797 2714.25490
473.8902 2625.04538
474.1007 2546.97682
474.3111 2530.92074
474.5216 2493.19716
474.7320 2605.03673
474.9424 2747.65727
475.1528 2819.47954
475.3632 2624.28764
475.5736 2623.18173
475.7840 2579.60096
475.9943 2596.72198
476.2046 2649.43669
476.4149 2681.95844
476.6252 2766.92866
476.8355 2911.96581
477.0458 2906.23149
477.2561 2953.08902
477.4663 2827.91717
477.6765 2777.49618
477.8867 2716.61007
478.0969 2753.04343
478.3071 2761.13291
478.5173 2711.26487
478.7274 2786.99875
478.9375 2933.92003
479.1477 2941.74327
479.3578 2921.87797
479.5679 3032.71404
479.7779 2877.60089
479.9880 2834.65499
480.1980 2912.62116
480.4081 2978.60671
480.6181 2915.63167
480.8281 2792.05724
481.0381 2915.91839
481.2480 2983.64471
481.4580 2895.29534
481.6679 2895.09054
481.8778 2818.37363
482.0877 2928.00140
482.2976 2952.35175
482.5075 2996.50596
482.7174 2967.97775
482.9272 2967.07665
483.1371 2915.34495
483.3469 2932.97797
483.5567 3027.63508
483.7665 3046.23064
483.9762 3039.61570
484.1860 3017.41572
484.3957 3059.35812
484.6055 2989.70670
484.8152 3035.41736
485.0249 3089.58614
485.2346 3059.70627
485.4442 3092.18706
485.6539 3140.72392
485.8635 3143.85731
486.0732 3067.24280
486.2828 3117.33611
486.4924 3111.27413
486.7019 3095.64812
486.9115 3138.51211
487.1210 3187.23329
487.3306 3198.64047
487.5401 3236.71221
487.7496 3238.06387
487.9591 3317.44314
488.1686 3296.57434
488.3780 3260.32529
488.5875 3283.75405
488.7969 3304.17230
489.0063 3295.30460
489.2157 3348.87946
489.4251 3323.38225
489.6345 3345.00880
489.8438 3344.80400
490.0531 3328.93224
490.2625 3370.46505
490.4718 3344.92688
490.6811 3394.38532
490.8903 3457.27845
491.0996 3461.23102
491.3089 3454.63657
491.5181 3492.54447
491.7273 3512.24593
491.9365 3509.21493
492.1457 3556.44109
492.3549 3552.81619
492.5640 3554.65936
492.7732 3576.63406
492.9823 3588.12317
493.1914 3673.62586
493.4005 3678.25427
493.6096 3639.81390
493.8187 3648.55873
494.0277 3720.85202
494.2368 3724.78412
494.4458 3750.05606
494.6548 3776.33150
494.8638 3818.35582
495.0728 3773.15715
495.2817 3821.44825
495.4907 3811.78184
495.6996 3871.76684
495.9085 3867.77330
496.1174 3901.54431
496.3263 3912.45998
496.5352 3948.09464
496.7440 3965.44093
496.9529 4007.44477
497.1617 4025.73313
497.3705 4001.93573
497.5793 4084.01832
497.7881 4071.87387
497.9969 4121.45519
498.2056 4138.80149
498.4144 4172.38817
498.6231 4204.35697
498.8318 4211.42246
499.0405 4243.67797
499.2492 4195.32542
499.4578 4291.96907
499.6665 4296.88419
499.8751 4374.44077
500.0837 4398.40200
500.2923 4401.12580
500.5009 4389.04279
500.7095 4451.81303
500.9180 4484.60101
501.1266 4529.10337
501.3351 4536.94709
501.5436 4579.87252
501.7521 4578.41846
501.9606 4633.63170
502.1691 4615.09758
502.3775 4666.93167
502.5860 4717.25026
502.7944 4726.97811
503.0028 4803.85886
503.2112 4844.71583
503.4196 4829.54039
503.6279 4924.38182
503.8363 4861.50918
504.0446 4979.39026
504.2529 4997.28951
504.4612 5031.42915
504.6695 5052.80994
504.8778 5096.63647
505.0860 5132.41448
505.2943 5143.33016
505.5025 5223.83581
505.7107 5242.16513
505.9189 5313.68020
506.1271 5349.47869
506.3353 5358.73551
506.5434 5350.54364
506.7516 5435.75962
506.9597 5440.26515
507.1678 5494.53632
507.3759 5559.90748
507.5840 5549.72908
507.7920 5604.00025
508.0001 5606.00726
508.2081 5742.27910
508.4161 5726.32542
508.6241 5790.40636
508.8321 5779.18350
509.0401 5853.85244
509.2480 5887.54152
509.4560 5876.99448
509.6639 5956.84478
509.8718 5992.60232
510.0797 6041.38493
510.2876 6039.78752
510.4955 6216.97778
510.7033 6240.20174
510.9112 6336.47675
511.1190 6317.10297
511.3268 6307.76423
511.5346 6401.54072
511.7424 6424.88756
511.9501 6498.69636
512.1579 6541.04835
512.3656 6614.07892
512.5733 6595.70864
512.7810 6731.65280
512.9887 6791.02342
513.1964 6833.02725
513.4040 6847.30160
513.6117 6908.74066
513.8193 6952.93582
514.0269 7023.69315
514.2345 7124.51465
514.4421 7123.26539
514.6497 7160.29266
514.8572 7242.53909
515.0647 7264.51379
515.2723 7370.45521
515.4798 7412.66385
515.6873 7500.48075
515.8947 7475.27025
516.1022 7519.07631
516.3097 7588.37957
516.5171 7717.89311
516.7245 7724.11894
516.9319 7804.95226
517.1393 7885.31456
517.3467 7944.80805
517.5540 7986.68901
517.7614 8060.27253
517.9687 8017.63382
518.1760 8100.69943
518.3833 8192.30507
518.5906 8201.31614
518.7978 8373.30455
519.0051 8335.19185
519.2123 8515.88414
519.4196 8434.35450
519.6268 8552.27654
519.8340 8632.59787
520.0411 8743.72066
520.2483 8807.28961
520.4554 8823.77576
520.6626 8918.20760
520.8697 8983.47636
521.0768 9147.19098
521.2839 9154.60463
521.4909 9214.77395
521.6980 9416.62175
521.9050 9460.34588
522.1121 9512.28237
522.3191 9586.78747
522.5261 9661.49737
522.7331 9749.19140
522.9400 9919.17280
523.1470 9935.92519
523.3539 9999.65798
523.5608 10064.33283
523.7677 10121.79883
523.9746 10207.26057
524.1815 10291.78024
524.3884 10390.84049
524.5952 10360.03904
524.8020 10574.74808
525.0089 10527.17377
525.2157 10641.47090
525.4225 10725.60146
525.6292 10789.17041
525.8360 10887.39099
526.0427 10992.77946
526.2494 11110.31239
526.4562 11204.98998
526.6629 11173.88134
526.8695 11275.54251
527.0762 11458.95859
527.2829 11470.26337
527.4895 11706.23033
527.6961 11785.58912
527.9027 11878.68978
528.1093 11901.54511
528.3159 11978.09819
528.5224 12021.47416
528.7290 12317.09845
528.9355 12260.61547
529.1420 12514.33832
529.3485 12416.99837
529.5550 12620.56646
529.7615 12642.41829
529.9680 12851.14726
530.1744 12883.21845
530.3808 13009.94676
530.5872 12975.13129
530.7936 13147.97985
531.0000 13193.19900
531.2064 13296.53951
531.4127 13378.25346
531.6191 13529.00444
531.8254 13585.03687
532.0317 13724.81073
532.2380 13745.76145
532.4443 13984.14502
532.6505 13770.45996
532.8568 14074.70619
533.0630 14250.19664
533.2692 14236.06565
533.4754 14370.35096
533.6816 14625.11827
533.8878 14610.98729
534.0939 14824.34467
534.3001 14829.66939
534.5062 14934.83259
534.7123 15019.70041
534.9184 15044.05076
535.1245 15064.03894
535.3306 15229.28954
535.5366 15391.71394
535.7426 15526.32692
535.9487 15776.97782
536.1547 15634.70543
536.3607 15788.13925
536.5666 15812.24384
536.7726 15955.62213
536.9785 16048.88663
537.1845 16294.11041
537.3904 16247.99015
537.5963 16499.13256
537.8022 16538.61740
538.0080 16737.49564
538.2139 16831.23117
538.4197 16966.60191
538.6256 16966.27423
538.8314 17098.63445
539.0372 17164.70192
539.2430 17422.54119
539.4487 17136.87003
539.6545 17611.93734
539.8602 17521.62192
540.0659 17680.91293
540.2716 18000.76469
540.4773 17981.18610
540.6830 18274.49619
540.8887 18269.11003
541.0943 18216.12908
541.2999 18249.57241
541.5056 18366.79814
541.7112 18512.24488
541.9167 18478.61723
542.1223 18734.98196
542.3279 18793.06236
542.5334 18917.84509
542.7389 19231.55295
542.9444 19313.94273
543.1499 19421.62493
543.3554 19332.74308
543.5609 19625.68453
543.7663 19746.22797
543.9718 19594.22773
544.1772 19905.99001
544.3826 19891.71567
544.5880 20284.59800
544.7934 20323.07933
544.9987 20363.03520
545.2041 20725.42327
545.4094 20577.74424
545.6147 20774.92268
545.8200 21011.62690
546.0253 21084.12500
546.2306 21300.28810
546.4358 21146.62900
546.6411 21454.25439
546.8463 21408.19557
547.0515 21776.87091
547.2567 21700.21544
547.4619 21881.19443
547.6670 22076.57065
547.8722 22145.11617
548.0773 22545.94461
548.2824 22418.13088
548.4876 22402.68920
548.6926 22740.74740
548.8977 22899.66977
549.1028 23163.57103
549.3078 23114.95225
549.5129 23188.90440
549.7179 23245.96081
549.9229 23424.09313
550.1279 23409.81879
550.3328 23529.13345
550.5378 23391.36659
550.7427 23709.21134
550.9476 23811.81458
551.1526 23464.72483
551.3575 23942.63882
551.5623 23966.08806
551.7672 23922.32297
551.9720 24180.34655
552.1769 24137.40065
552.3817 24506.83373
552.5865 24236.23562
552.7913 24444.96459
552.9961 24366.69123
553.2008 24531.14312
553.4056 24896.74650
553.6103 24781.50730
553.8150 25116.49355
554.0197 25190.40474
554.2244 25026.54676
554.4291 24972.56230
554.6337 25308.83877
554.8384 25317.95223
555.0430 25320.83987
555.2476 25254.95671
555.4522 25229.37758
555.6568 25419.98204
555.8613 25521.13121
556.0659 25804.52913
556.2704 25546.64890
556.4750 25889.35599
556.6795 25939.69507
556.8839 25740.53010
557.0884 25996.07565
557.2929 26024.46049
557.4973 25944.03676
557.7018 25978.36072
557.9062 26027.34813
558.1106 26103.67592
558.3150 26066.17762
558.5193 26253.91491
558.7237 26305.17557
558.9280 26197.88249
559.1323 26153.31869
559.3367 26186.84393
559.5410 26296.77890
559.7452 25911.10542
559.9495 26434.89391
560.1537 26344.45561
560.3580 26317.75010
560.5622 26556.37942
560.7664 26695.25218
560.9706 26650.17638
561.1748 26874.79760
561.3789 26945.45252
561.5831 26915.92081
561.7872 26888.74426
561.9913 27039.63860
562.1954 26866.27805
562.3995 27013.87515
562.6036 27067.45002
562.8076 26780.05856
563.0117 27192.39659
563.2157 27163.00824
563.4197 27329.48762
563.6237 27259.54949
563.8277 27032.24543
564.0316 26854.58415
564.2356 27131.36712
564.4395 27268.31479
564.6434 27288.15961
564.8473 27595.90787
565.0512 27515.25886
565.2551 27561.62488
565.4590 27702.93472
565.6628 27747.00701
565.8666 27870.31521
566.0705 27840.21007
566.2743 27727.55130
566.4780 27767.56861
566.6818 27751.67638
566.8856 28049.18480
567.0893 27791.03834
567.2930 27875.59897
567.4967 27795.48243
567.7004 27986.29168
567.9041 28140.85188
568.1078 27964.39889
568.3114 28088.56724
568.5151 28189.30682
568.7187 27639.93920
568.9223 28127.62200
569.1259 28111.66832
569.3295 28498.55010
569.5330 28483.39513
569.7366 28308.53956
569.9401 28458.92190
570.1436 28466.02836
570.3471 28807.38379
570.5506 28760.95634
570.7541 28588.00538
570.9575 28772.03585
571.1609 28591.87604
571.3644 28884.08022
571.5678 28963.33661
571.7712 29155.41560
571.9746 29098.11343
572.1779 28912.91562
572.3813 28774.86204
572.5846 29242.37235
572.7879 29055.61808
572.9912 29466.76829
573.1945 29450.28214
573.3978 29189.43236
573.6010 29322.93944
573.8043 29610.33090
574.0075 29134.07576
574.2107 29279.72730
574.4139 29059.69354
574.6171 29241.73748
574.8203 28928.76690
575.0234 29208.51943
575.2266 28899.60382
575.4297 29024.87807
575.6328 29113.47320
575.8359 29202.98991
576.0390 28513.50027
576.2420 28768.94341
576.4451 28443.76694
576.6481 28773.48990
576.8512 29129.93887
577.0542 28478.29569
577.2571 28803.59505
577.4601 28781.90706
577.6631 28509.36337
577.8660 28499.96320
578.0689 28036.20068
578.2719 28224.22469
578.4748 28217.89646
578.6776 28025.24404
578.8805 28061.39069
579.0834 27776.64112
579.2862 28069.41873
579.4890 28128.78934
579.6918 28315.07258
579.8946 27831.58812
580.0974 27972.77508
580.3002 27766.95422
580.5029 27604.98038
580.7057 27856.40950
580.9084 27481.03731
581.1111 27785.50882
581.3138 27553.76068
581.5164 27377.71728
581.7191 27247.03640
581.9217 27265.14044
582.1244 27015.34969
582.3270 26977.76947
582.5296 27149.08205
582.7322 27297.76458
582.9347 27146.50161
583.1373 26862.44835
583.3398 26910.53465
583.5424 26806.12920
583.7449 26719.07005
583.9474 26636.76219
584.1498 26493.40438
584.3523 26787.53365
584.5548 26441.91844
584.7572 26505.36451
584.9596 26617.92088
585.1620 26852.92529
585.3644 26367.92533
585.5668 26327.74418
585.7691 26464.83521
585.9715 26323.60729
586.1738 26515.82963
586.3761 26299.07262
586.5784 26522.26026
586.7807 26435.95885
586.9830 26425.26846
587.1852 26328.56337
587.3875 26195.28157
587.5897 26441.69317
587.7919 26289.54957
587.9941 26082.62280
588.1963 26063.90437
588.3984 25991.44724
588.6006 25760.62068
588.8027 26239.51769
589.0048 26110.47518
589.2069 26035.54000
589.4090 26214.51199
589.6111 26350.72239
589.8131 26361.22847
590.0152 26483.10309
590.2172 26149.09987
590.4192 26532.72538
590.6212 26269.15180
590.8232 26025.01344
591.0252 26393.72974
591.2271 26398.66534
591.4291 26399.73029
591.6310 26271.46600
591.8329 26258.07229
592.0348 26406.18139
592.2367 26356.49767
592.4385 26675.55072
592.6404 26873.69169
592.8422 26985.89990
593.0440 27145.55955
593.2458 27303.99041
593.4476 27294.34448
593.6494 27393.69144
593.8512 27546.24463
594.0529 27529.88136
594.2546 27574.05605
594.4563 27560.88761
594.6580 27429.44897
594.8597 27506.37068
595.0614 27508.19337
595.2630 27778.11565
595.4647 27810.04349
595.6663 27725.52382
595.8679 27915.22716
596.0695 28193.73043
596.2711 28028.70511
596.4727 28145.72604
596.6742 28321.66704
596.8757 28509.69105
597.0773 28605.26975
597.2788 28350.19524
597.4802 28628.53468
597.6817 28790.07845
597.8832 28629.55866
598.0846 28799.21239
598.2860 28738.40820
598.4875 28504.93976
598.6889 29034.13489
598.8902 29126.29348
599.0916 29291.29832
599.2930 29129.24256
599.4943 29380.95840
599.6956 29432.09618
599.8969 29390.72721
600.0982 29246.48877
600.2995 29093.25975
600.5008 29600.35729
600.7020 29488.25148
600.9032 29729.52268
601.1045 29795.83590
601.3057 29736.48577
601.5068 30033.44124
601.7080 30190.31565
601.9092 29889.05944
602.1103 30439.24625
602.3115 30326.50557
602.5126 30326.17789
602.7137 30186.13779
602.9147 30379.67084
603.1158 30621.31067
603.3169 30745.92957
603.5179 30923.85709
603.7189 30733.60080
603.9199 30921.09233
604.1209 30780.84743
604.3219 30876.71285
604.5229 31102.46045
604.7238 31107.33461
604.9247 31169.26519
605.1257 31232.50646
605.3266 31399.39544
605.5275 31252.98615
605.7283 31430.31976
605.9292 31748.08260
606.1300 31166.04988
606.3309 31367.71336
606.5317 31757.35989
606.7325 32047.63898
606.9332 32007.72407
607.1340 32020.58532
607.3348 32047.53659
607.5355 31891.82952
607.7362 32352.86825
607.9369 31934.46823
608.1376 32300.93176
608.3383 32246.88586
608.5390 32433.41486
608.7396 32403.10492
608.9402 32761.95000
609.1409 32808.39794
609.3415 32594.46712
609.5421 32570.21917
609.7426 32711.67237
609.9432 32662.43920
610.1437 32363.14905
610.3443 33124.97295
610.5448 32912.51667
610.7453 33157.67901
610.9457 32955.07346
611.1462 33078.01302
611.3467 32974.50868
611.5471 33379.31018
611.7475 33027.71491
611.9479 33592.81093
612.1483 33102.85488
612.3487 33722.69310
612.5491 33273.65548
612.7494 33964.31246
612.9497 33527.60360
613.1501 33762.01410
613.3504 33766.17148
613.5506 34434.85376
613.7509 34023.99027
613.9512 33710.05714
614.1514 33758.63496
614.3516 34312.59002
614.5519 34094.29703
614.7521 34475.44450
614.9522 34211.93236
615.1524 34056.77825
615.3526 34463.46388
615.5527 34837.99641
615.7528 34423.52849
615.9529 34470.77513
616.1530 34754.41880
616.3531 35062.12611
616.5532 35199.19665
616.7532 34838.71320
616.9532 34860.60598
617.1533 34618.47464
617.3533 34927.39024
617.5532 34757.79795
617.7532 34937.48673
617.9532 34710.01884
618.1531 35407.14740
618.3530 34739.12048
618.5530 35081.72517
618.7528 35141.13674
618.9527 35246.21802
619.1526 35010.47633
619.3524 34972.32268
619.5523 35166.92067
619.7521 35251.07170
619.9519 35364.87733
620.1517 35439.62819
620.3515 35567.13472
620.5512 35701.05140
620.7510 35538.56556
620.9507 35292.87075
621.1504 35228.72836
621.3501 35439.62819
621.5498 35804.45334
621.7495 35640.80016
621.9492 35830.79022
622.1488 35286.13293
622.3484 35389.30959
622.5480 35288.38569
622.7476 36070.73024
622.9472 35486.44475
623.1468 35462.87263
623.3463 36525.11306
623.5459 36334.85677
623.7454 36024.87622
623.9449 36096.61656
624.1444 36128.25768
624.3439 36334.18094
624.5433 36003.37254
624.7428 36115.33500
624.9422 35899.76580
625.1416 35916.96874
625.3410 35817.49890
625.5404 36072.57341
625.7398 35879.24516
625.9391 36101.36785
626.1385 35795.07364
626.3378 35869.25107
626.5371 36422.24359
626.7364 35760.09434
626.9357 35969.72442
627.1350 36013.65335
627.3342 35987.68510
627.5335 35875.57929
627.7327 35997.88399
627.9319 36056.37398
628.1311 36809.39160
628.3303 36104.00973
628.5294 36169.79048
628.7286 36345.40380
628.9277 36610.55432
629.1268 36421.58824
629.3259 36700.25535
629.5250 36679.42751
629.7241 36648.01167
629.9231 35944.92352
630.1222 36721.77950
630.3212 36651.12458
630.5202 36225.18804
630.7192 36477.41587
630.9182 36079.18835
631.1171 36252.26219
631.3161 36134.34015
631.5150 35864.92986
631.7140 36204.05300
631.9129 36358.63368
632.1118 36411.75799
632.3106 36480.30351
632.5095 36415.83345
632.7083 36126.04587
632.9072 36265.53302
633.1060 36374.52592
633.3048 35906.46266
633.5036 35982.27847
633.7023 36071.05791
633.9011 36436.14930
634.0998 36673.57032
634.2986 36205.97809
634.4973 36431.88952
634.6960 36240.93692
634.8947 36158.52666
635.0933 36123.03536
635.2920 36059.22065
635.4906 35762.96149
635.6892 36075.42008
635.8878 36173.29251
636.0864 36312.24719
636.2850 35901.69090
636.4836 35901.60898
636.6821 35688.92742
636.8806 35935.31854
637.0792 36070.34112
637.2777 36007.71424
637.4761 35726.95820
637.6746 35687.10473
637.8731 36211.91720
638.0715 35729.84584
638.2699 35983.67108
638.4683 35904.14846
638.6667 35602.17547
638.8651 35745.81999
639.0635 35845.82231
639.2618 35657.42966
639.4602 35736.27646
639.6585 35391.95147
639.8568 35766.05393
640.0551 35519.84712
640.2534 35310.83143
640.4516 35575.01940
640.6499 35511.26613
640.8481 35827.49299
641.0463 35762.24470
641.2445 35892.90511
641.4427 35509.85303
641.6409 35515.03440
641.8390 35483.59808
642.0372 35635.68023
642.2353 35399.65184
642.4334 35256.70362
642.6315 35385.95092
642.8296 35218.75476
643.0277 34910.47402
643.2257 35489.06615
643.4237 35237.94422
643.6218 34887.65965
643.8198 35000.93280
644.0178 34956.94243
644.2157 34690.05114
644.4137 34714.56533
644.6116 35559.20908
644.8096 35531.19287
645.0075 34709.36349
