# Averages = 100
# wavelength [µm]	intensity
446.8250 14.33578
447.0374 36746.70328
447.2498 1228.45357
447.4621 1230.99306
447.6745 1235.29379
447.8868 1240.61851
448.0992 1242.68696
448.3115 1234.88420
448.5238 1251.88234
448.7360 1241.54010
448.9483 1247.99120
449.1606 1240.80283
449.3728 1262.53177
449.5850 1232.48807
449.7972 1245.04212
450.0094 1233.63494
450.2216 1258.35392
450.4337 1246.68050
450.6459 1683.61463
450.8580 2015.30365
451.0701 2036.11101
451.2822 2065.51984
451.4943 2056.81598
451.7064 2035.80382
451.9184 2025.83021
452.1305 2086.61392
452.3425 2198.57637
452.5545 2121.18363
452.7665 2116.61666
452.9785 2230.52468
453.1905 2268.33019
453.4024 2192.04335
453.6143 2296.96079
453.8263 2271.70934
454.0382 2382.58636
454.2501 2246.70364
454.4619 2229.74646
454.6738 2363.74505
454.8856 2429.25957
455.0975 2277.30029
455.3093 2284.26338
455.5211 2360.18159
455.7329 2327.16833
455.9446 2361.53325
456.1564 2364.27752
456.3681 2433.02783
456.5798 2495.32704
456.7916 2434.54333
457.0033 2428.03079
457.2149 2382.15629
457.4266 2407.14151
457.6382 2471.50917
457.8499 2436.71418
458.0615 2559.10079
458.2731 2470.32135
458.4847 2556.80707
458.6963 2579.39616
458.9078 2594.67401
459.1194 2748.55838
459.3309 2765.26980
459.5424 2625.65977
459.7539 2521.39769
459.9654 2573.47753
460.1769 2647.32728
460.3883 2633.83117
460.5998 2490.47336
460.8112 2464.36176
461.0226 2541.63162
461.2340 2650.72691
461.4454 2593.21995
461.6567 2546.83346
461.8681 2528.70893
462.0794 2490.26856
462.2907 2598.17603
462.5020 2688.26618
462.7133 2781.32588
462.9246 2844.69003
463.1359 2684.02688
463.3471 2455.41213
463.5583 2518.75581
463.7696 2847.49575
463.9808 2725.76449
464.1919 2599.05666
464.4031 2610.81200
464.6143 2748.31262
464.8254 2586.78933
465.0365 2569.87311
465.2476 2682.47043
465.4587 2731.72408
465.6698 2563.74968
465.8809 2534.56613
466.0919 2562.37754
466.3030 2728.65212
466.5140 2684.23168
466.7250 2582.57051
466.9360 2634.62988
467.1469 2588.40722
467.3579 2479.70104
467.5688 2480.86838
467.7798 2583.10298
467.9907 2756.11538
468.2016 2588.48914
468.4125 2568.68528
468.6233 2471.34533
468.8342 2486.50030
469.0450 2739.19916
469.2559 2736.08625
469.4667 2715.60656
469.6775 2504.11283
469.8882 2529.01613
470.0990 2587.87475
470.3098 2735.53330
470.5205 2606.26551
470.7312 2745.05635
470.9419 2844.73099
471.1526 2688.10234
471.3633 2552.95688
471.5739 2598.81090
471.7846 2578.04450
471.9952 2427.15016
472.2058 2492.17317
472.4164 2474.47872
472.6270 2513.90212
472.8376 2556.35651
473.0481 2699.38665
473.2587 2743.68421
473.4692 2689.94551
473.6797 2618.04133
473.8902 2539.68605
474.1007 2461.04405
474.3111 2461.26932
474.5216 2406.71144
474.7320 2519.84123
474.9424 2658.26344
475.1528 2716.44623
475.3632 2542.69656
475.5736 2541.65210
475.7840 2495.73664
475.9943 2520.14842
476.2046 2539.33789
476.4149 2569.48399
476.6252 2668.11417
476.8355 2801.78509
477.0458 2812.80316
477.2561 2846.55368
477.4663 2730.27002
477.6765 2671.49332
477.8867 2630.84114
478.0969 2636.00202
478.3071 2657.25993
478.5173 2613.08525
478.7274 2681.69220
478.9375 2834.32731
479.1477 2826.21735
479.3578 2822.98156
479.5679 2899.30936
479.7779 2765.74084
479.9880 2717.06062
480.1980 2794.49432
480.4081 2867.54536
480.6181 2797.19764
480.8281 2690.98998
481.0381 2812.08637
481.2480 2870.78115
481.4580 2787.75650
481.6679 2781.87883
481.8778 2732.17463
482.0877 2809.48545
482.2976 2841.12657
482.5075 2882.70033
482.7174 2847.47527
482.9272 2847.55719
483.1371 2798.79505
483.3469 2821.22031
483.5567 2903.01618
483.7665 2924.70417
483.9762 2920.19864
484.1860 2892.69442
484.3957 2921.28406
484.6055 2879.07543
484.8152 2925.91247
485.0249 2950.75433
485.2346 2929.76265
485.4442 2956.14049
485.6539 3015.98214
485.8635 3013.31978
486.0732 2943.93460
486.2828 2975.37092
486.4924 2979.95837
486.7019 2969.00174
486.9115 3005.63990
487.1210 3039.20610
487.3306 3058.35461
487.5401 3100.33797
487.7496 3092.86289
487.9591 3179.20525
488.1686 3161.03977
488.3780 3114.22320
488.5875 3137.97964
488.7969 3155.91984
489.0063 3148.79291
489.2157 3199.50062
489.4251 3187.68384
489.6345 3194.38070
489.8438 3203.06408
490.0531 3187.25377
490.2625 3213.59064
490.4718 3197.63697
490.6811 3258.60500
490.8903 3295.38652
491.0996 3309.12839
491.3089 3305.31916
491.5181 3336.69405
491.7273 3348.32651
491.9365 3337.45179
492.1457 3384.59603
492.3549 3378.92316
492.5640 3389.53164
492.7732 3414.92645
492.9823 3414.94693
493.1914 3505.83578
493.4005 3496.23081
493.6096 3478.47492
493.8187 3464.81497
494.0277 3532.88945
494.2368 3538.89000
494.4458 3567.72540
494.6548 3611.34713
494.8638 3640.24397
495.0728 3600.30858
495.2817 3634.73494
495.4907 3630.39324
495.6996 3691.99614
495.9085 3674.97752
496.1174 3717.86199
496.3263 3717.71863
496.5352 3751.26436
496.7440 3772.33796
496.9529 3802.95509
497.1617 3811.31080
497.3705 3800.53849
497.5793 3871.15245
497.7881 3851.32811
497.9969 3921.65536
498.2056 3938.69446
498.4144 3960.23909
498.6231 3981.33317
498.8318 4001.42374
499.0405 4036.25969
499.2492 3980.20679
499.4578 4067.10210
499.6665 4059.58605
499.8751 4123.44172
500.0837 4148.57030
500.2923 4158.91254
500.5009 4160.59187
500.7095 4233.39716
500.9180 4231.45159
501.1266 4291.78475
501.3351 4289.18383
501.5436 4340.58785
501.7521 4319.10465
501.9606 4392.60625
502.1691 4382.32545
502.3775 4410.52598
502.5860 4454.74162
502.7944 4466.08737
503.0028 4535.55447
503.2112 4566.23304
503.4196 4534.12089
503.6279 4639.81656
503.8363 4593.16383
504.0446 4705.47444
504.2529 4717.12738
504.4612 4758.53731
504.6695 4787.20887
504.8778 4789.72787
505.0860 4819.03431
505.2943 4839.98503
505.5025 4931.32443
505.7107 4917.62352
505.9189 4993.95132
506.1271 5033.94815
506.3353 5055.63614
506.5434 5016.88857
506.7516 5121.84697
506.9597 5106.99919
507.1678 5150.72332
507.3759 5214.25132
507.5840 5209.11091
507.7920 5250.62324
508.0001 5262.31714
508.2081 5388.08290
508.4161 5356.97426
508.6241 5422.09966
508.8321 5419.70354
509.0401 5486.99979
509.2480 5517.73980
509.4560 5516.79774
509.6639 5584.36023
509.8718 5637.48454
510.0797 5676.00683
510.2876 5649.28084
510.4955 5816.51797
510.7033 5826.00006
510.9112 5899.68598
511.1190 5897.37177
511.3268 5895.20092
511.5346 5969.33739
511.7424 6004.17334
511.9501 6087.91478
512.1579 6117.69225
512.3656 6159.75753
512.5733 6152.36436
512.7810 6264.96168
512.9887 6330.61956
513.1964 6373.23779
513.4040 6386.07855
513.6117 6452.82186
513.8193 6480.01888
514.0269 6521.49025
514.2345 6597.92044
514.4421 6628.76285
514.6497 6648.56671
514.8572 6746.02954
515.0647 6750.78083
515.2723 6841.85400
515.4798 6886.02869
515.6873 6967.12825
515.8947 6943.51517
516.1022 6989.43063
516.3097 7042.06342
516.5171 7164.01996
516.7245 7177.39320
516.9319 7224.14833
517.1393 7309.26191
517.3467 7341.00542
517.5540 7383.76701
517.7614 7453.50035
517.9687 7427.71642
518.1760 7500.29643
518.3833 7584.16075
518.5906 7589.56739
518.7978 7746.05268
519.0051 7721.29274
519.2123 7856.56108
519.4196 7773.51594
519.6268 7913.59701
519.8340 7977.20692
520.0411 8074.11680
520.2483 8158.82078
520.4554 8163.75639
520.6626 8246.63768
520.8697 8281.00260
521.0768 8424.74953
521.2839 8424.79049
521.4909 8491.18563
521.6980 8674.76555
521.9050 8701.47106
522.1121 8772.43318
522.3191 8848.94529
522.5261 8892.36223
522.7331 8984.58226
522.9400 9141.21091
523.1470 9150.40629
523.3539 9191.67286
523.5608 9233.41047
523.7677 9299.80561
523.9746 9380.63894
524.1815 9460.24349
524.3884 9538.86501
524.5952 9498.52002
524.8020 9691.19292
525.0089 9651.09369
525.2157 9771.94433
525.4225 9823.65554
525.6292 9876.47265
525.8360 9948.11060
526.0427 10061.28135
526.2494 10139.51376
526.4562 10250.96422
526.6629 10223.97199
526.8695 10293.95108
527.0762 10455.45390
527.2829 10455.86349
527.4895 10687.91883
527.6961 10746.90033
527.9027 10808.23700
528.1093 10826.89399
528.3159 10889.66423
528.5224 10945.47138
528.7290 11206.56692
528.9355 11148.93708
529.1420 11382.52839
529.3485 11284.32829
529.5550 11469.15747
529.7615 11464.69290
529.9680 11640.44958
530.1744 11685.03386
530.3808 11815.46899
530.5872 11779.50666
530.7936 11888.04900
531.0000 11976.88988
531.2064 12038.49278
531.4127 12103.27004
531.6191 12255.98707
531.8254 12265.71492
532.0317 12428.18028
532.2380 12396.00669
532.4443 12609.44599
532.6505 12436.41311
532.8568 12686.53154
533.0630 12868.10445
533.2692 12849.32457
533.4754 12955.20456
533.6816 13154.55383
533.8878 13134.25846
534.0939 13356.27876
534.3001 13316.79392
534.5062 13412.29070
534.7123 13496.78989
534.9184 13506.49726
535.1245 13534.71827
535.3306 13637.60822
535.5366 13809.28944
535.7426 13919.57256
535.9487 14127.89194
536.1547 13954.69522
536.3607 14131.29157
536.5666 14144.48049
536.7726 14267.58389
536.9785 14360.45927
537.1845 14563.74065
537.3904 14480.30640
537.5963 14663.04666
537.8022 14753.97647
538.0080 14901.75789
538.2139 14958.11799
538.4197 15078.60000
538.6256 15085.46069
538.8314 15217.32940
539.0372 15250.60889
539.2430 15470.47882
539.4487 15201.72388
539.6545 15610.76468
539.8602 15516.94723
540.0659 15630.40470
540.2716 15931.31274
540.4773 15895.32993
540.6830 16177.56051
540.8887 16180.75534
541.0943 16085.91390
541.2999 16142.47880
541.5056 16212.96989
541.7112 16316.06463
541.9167 16298.12443
542.1223 16536.03696
542.3279 16536.26223
542.5334 16606.65092
542.7389 16871.16656
542.9444 16963.24324
543.1499 17040.39022
543.3554 16965.84416
543.5609 17240.47677
543.7663 17351.16948
543.9718 17190.48585
544.1772 17429.34045
544.3826 17440.87051
544.5880 17724.24795
544.7934 17753.47246
544.9987 17778.19144
545.2041 18095.83140
545.4094 17920.50479
545.6147 18041.82646
545.8200 18228.99032
546.0253 18266.24287
546.2306 18421.43795
546.4358 18318.52752
546.6411 18549.12880
546.8463 18539.62622
547.0515 18796.54390
547.2567 18796.64630
547.4619 18930.52202
547.6670 19080.22853
547.8722 19078.32392
548.0773 19433.66698
548.2824 19289.30566
548.4876 19267.45384
548.6926 19523.06082
548.8977 19680.14002
549.1028 19878.09668
549.3078 19864.90776
549.5129 19921.98465
549.7179 19946.06876
549.9229 20073.69817
550.1279 20012.07480
550.3328 20149.51398
550.5378 19950.14422
550.7427 20207.10286
550.9476 20281.11645
551.1526 19996.26448
551.3575 20359.24646
551.5623 20377.06379
551.7672 20291.39725
551.9720 20456.75025
552.1769 20387.28315
552.3817 20674.06021
552.5865 20442.37351
552.7913 20595.19294
552.9961 20511.47197
553.2008 20669.34989
553.4056 20886.76225
553.6103 20820.20326
553.8150 21072.65637
554.0197 21105.42387
554.2244 21006.65034
554.4291 20911.19452
554.6337 21160.16608
554.8384 21160.20704
555.0430 21114.72165
555.2476 21026.29036
555.4522 20948.83618
555.6568 21113.75910
555.8613 21149.47568
556.0659 21353.67864
556.2704 21115.06980
556.4750 21334.34582
556.6795 21362.79210
556.8839 21210.46419
557.0884 21399.02067
557.2929 21418.31254
557.4973 21316.22130
557.7018 21298.83404
557.9062 21308.99197
558.1106 21326.19490
558.3150 21265.59551
558.5193 21445.98060
558.7237 21430.57987
558.9280 21276.69550
559.1323 21218.04167
559.3367 21220.39684
559.5410 21268.40123
559.7452 20934.23416
559.9495 21318.98605
560.1537 21266.96765
560.3580 21195.06346
560.5622 21374.05593
560.7664 21436.23226
560.9706 21312.80119
561.1748 21432.13633
561.3789 21476.67965
561.5831 21420.42195
561.7872 21386.95814
561.9913 21480.24311
562.1954 21331.78586
562.3995 21468.73353
562.6036 21410.36642
562.8076 21179.58082
563.0117 21458.69848
563.2157 21372.17180
563.4197 21507.01006
563.6237 21408.09317
563.8277 21203.62397
564.0316 21081.05304
564.2356 21217.46824
564.4395 21259.45160
564.6434 21203.66493
564.8473 21373.54394
565.0512 21241.36804
565.2551 21268.15547
565.4590 21331.66298
565.6628 21338.99471
565.8666 21385.60648
566.0705 21292.66965
566.2743 21166.53526
566.4780 21138.41665
566.6818 21143.29081
566.8856 21271.00215
567.0893 21081.76983
567.2930 21053.34403
567.4967 20950.90463
567.7004 21049.45289
567.9041 21136.30724
568.1078 21025.86029
568.3114 21045.56175
568.5151 21063.37907
568.7187 20553.00478
568.9223 20890.51003
569.1259 20808.46840
569.3295 21044.37392
569.5330 20983.09870
569.7366 20825.07743
569.9401 20899.93069
570.1436 20861.94087
570.3471 21052.81155
570.5506 20987.91142
570.7541 20826.16285
570.9575 20864.43939
571.1609 20673.54822
571.3644 20826.22429
571.5678 20767.91862
571.7712 20856.57519
571.9746 20807.05530
572.1779 20591.19940
572.3813 20435.08274
572.5846 20707.11443
572.7879 20562.24112
572.9912 20791.10163
573.1945 20632.89604
573.3978 20465.10596
573.6010 20503.36202
573.8043 20639.08091
574.0075 20234.75044
574.2107 20295.55463
574.4139 20143.71823
574.6171 20202.92500
574.8203 19824.86997
575.0234 20011.64472
575.2266 19651.52990
575.4297 19737.29883
575.6328 19668.95811
575.8359 19675.59353
576.0390 19163.51942
576.2420 19243.36973
576.4451 18934.49508
576.6481 19075.70252
576.8512 19282.09681
577.0542 18781.42989
577.2571 18957.14561
577.4601 18839.16213
577.6631 18582.40829
577.8660 18510.97514
578.0689 18191.53298
578.2719 18245.53791
578.4748 18185.61435
578.6776 17934.30810
578.8805 17896.83027
579.0834 17667.88785
579.2862 17739.03428
579.4890 17771.76082
579.6918 17791.83091
579.8946 17401.91814
580.0974 17430.58971
580.3002 17240.21053
580.5029 17009.77309
580.7057 17132.15970
580.9084 16785.72531
581.1111 16968.48604
581.3138 16740.15800
581.5164 16562.94727
581.7191 16440.37634
581.9217 16315.53216
582.1244 16120.93417
582.3270 16013.53869
582.5296 16048.72279
582.7322 16037.41800
582.9347 15912.77863
583.1373 15647.19804
583.3398 15608.53239
583.5424 15488.80814
583.7449 15382.60048
583.9474 15256.05649
584.1498 15089.02416
584.3523 15164.49180
584.5548 14920.23057
584.7572 14845.29540
584.9596 14804.99137
585.1620 14898.13299
585.3644 14531.81282
585.5668 14395.56146
585.7691 14439.12175
585.9715 14287.49015
586.1738 14313.54031
586.3761 14107.04362
586.5784 14182.83894
586.7807 14056.84791
586.9830 13985.84483
587.1852 13802.55163
587.3875 13675.33181
587.5897 13723.43859
587.7919 13565.94980
587.9941 13379.40032
588.1963 13330.57675
588.3984 13184.84329
588.6006 13027.80505
588.8027 13125.51364
589.0048 12958.91138
589.2069 12881.39576
589.4090 12885.63506
589.6111 12876.41920
589.8131 12776.08921
590.0152 12782.90895
590.2172 12510.38574
590.4192 12633.05907
590.6212 12406.00078
590.8232 12227.45886
591.0252 12308.96802
591.2271 12220.70056
591.4291 12166.49083
591.6310 12031.36585
591.8329 11916.88440
592.0348 11883.93258
592.2367 11802.42343
592.4385 11805.06531
592.6404 11825.56547
592.8422 11739.89894
593.0440 11717.73992
593.2458 11706.06650
593.4476 11613.17063
593.6494 11590.58154
593.8512 11571.00296
594.0529 11477.12407
594.2546 11418.79792
594.4563 11319.36904
594.6580 11195.01637
594.8597 11146.27472
595.0614 11043.48717
595.2630 11098.08601
595.4647 10965.91011
595.6663 10837.97350
595.8679 10820.95488
596.0695 10826.11576
596.2711 10719.10940
596.4727 10666.76332
596.6742 10635.79803
596.8757 10625.37387
597.0773 10588.28515
597.2788 10395.67369
597.4802 10443.96480
597.6817 10443.73952
597.8832 10272.67269
598.0846 10219.54838
598.2860 10173.46908
598.4875 10031.50389
598.6889 10063.26788
598.8902 10008.44376
599.0916 9983.97053
599.2930 9850.15626
599.4943 9861.72728
599.6956 9812.78083
599.8969 9687.99809
600.0982 9609.08985
600.2995 9518.40580
600.5008 9577.03914
600.7020 9429.46252
600.9032 9432.59591
601.1045 9353.81055
601.3057 9263.74088
601.5068 9297.65525
601.7080 9261.52908
601.9092 9123.61886
602.1103 9182.68228
602.3115 9143.68896
602.5126 9072.91116
602.7137 8961.48118
602.9147 8923.42992
603.1158 8912.12513
603.3169 8869.91649
603.5179 8836.78036
603.7189 8708.67991
603.9199 8710.11349
604.1209 8611.23756
604.3219 8585.67891
604.5229 8578.92061
604.7238 8546.86990
604.9247 8495.79356
605.1257 8466.48713
605.3266 8441.60431
605.5275 8356.34737
605.7283 8326.32415
605.9292 8350.40826
606.1300 8162.99864
606.3309 8139.38556
606.5317 8187.18515
606.7325 8217.96612
606.9332 8199.47296
607.1340 8165.12853
607.3348 8054.59965
607.5355 7987.11908
607.7362 8050.01220
607.9369 7912.81878
608.1376 7960.47501
608.3383 7915.82929
608.5390 7923.07910
608.7396 7867.12860
608.9402 7896.82414
609.1409 7905.42561
609.3415 7803.02717
609.5421 7773.31115
609.7426 7767.22868
609.9432 7709.82412
610.1437 7629.44134
610.3443 7771.28366
610.5448 7680.04665
610.7453 7678.57211
610.9457 7641.87251
611.1462 7647.13579
611.3467 7593.66333
611.5471 7678.89979
611.7475 7599.99155
611.9479 7686.62063
612.1483 7543.01706
612.3487 7665.52655
612.5491 7569.25154
612.7494 7696.51232
612.9497 7571.21759
613.1501 7624.40334
613.3504 7593.92956
613.5506 7738.68000
613.7509 7674.94721
613.9512 7632.30850
614.1514 7618.46423
614.3516 7707.50991
614.5519 7654.67232
614.7521 7722.84920
614.9522 7715.16931
615.1524 7694.28003
615.3526 7739.23295
615.5527 7837.26921
615.7528 7773.00395
615.9529 7814.31148
616.1530 7879.17065
616.3531 7951.03387
616.5532 8004.62922
616.7532 7938.09071
616.9532 7960.16782
617.1533 7922.85382
617.3533 7989.20801
617.5532 8009.07331
617.7532 8061.03028
617.9532 8027.62791
618.1531 8185.73109
618.3530 8107.78540
618.5530 8173.75048
618.7528 8225.27737
618.9527 8306.15166
619.1526 8301.15461
619.3524 8291.61108
619.5523 8350.30586
619.7521 8396.40564
619.9519 8469.27237
620.1517 8522.72435
620.3515 8608.57520
620.5512 8649.65745
620.7510 8661.80191
620.9507 8701.77826
621.1504 8699.13638
621.3501 8776.52912
621.5498 8912.20705
621.7495 8924.59726
621.9492 8991.44296
622.1488 8943.86865
622.3484 9082.27037
622.5480 9110.69618
622.7476 9310.41409
622.9472 9231.11674
623.1468 9254.32023
623.3463 9567.31129
623.5459 9635.03762
623.7454 9605.54687
623.9449 9672.49497
624.1444 9754.74139
624.3439 9868.42414
624.5433 9875.96066
624.7428 9984.64636
624.9422 9987.39064
625.1416 10051.65590
625.3410 10106.09091
625.5404 10283.81364
625.7398 10330.75308
625.9391 10440.87236
626.1385 10390.20562
626.3378 10503.13061
626.5371 10751.56970
626.7364 10621.81040
626.9357 10752.88040
627.1350 10863.32736
627.3342 10962.75624
627.5335 10995.15510
627.7327 11113.42530
627.9319 11198.37504
628.1311 11531.88675
628.3303 11432.88795
628.5294 11502.98992
628.7286 11645.46710
628.9277 11829.04702
629.1268 11897.87925
629.3259 12051.14923
629.5250 12161.98530
629.7241 12225.82049
629.9231 12109.04531
630.1222 12462.31992
630.3212 12522.98075
630.5202 12489.80366
630.7192 12720.91693
630.9182 12749.69089
631.1171 12829.56167
631.3161 12936.26085
631.5150 12956.43334
631.7140 13118.03855
631.9129 13310.65001
632.1118 13440.10212
632.3106 13515.79504
632.5095 13662.83920
632.7083 13635.33498
632.9072 13806.38133
633.1060 13949.80058
633.3048 13865.50619
633.5036 14006.81603
633.7023 14215.36069
633.9011 14488.31396
634.0998 14666.95828
634.2986 14650.51309
634.4973 14892.89019
634.6960 14855.57620
634.8947 14973.45728
635.0933 15044.62419
635.2920 15184.97149
635.4906 15206.76188
635.6892 15476.74560
635.8878 15583.54717
636.0864 15755.82230
636.2850 15746.68836
636.4836 15880.50264
636.6821 15903.76756
636.8806 16135.90482
637.0792 16317.43677
637.2777 16416.96805
637.4761 16453.87245
637.6746 16607.96162
637.8731 16933.77297
638.0715 16844.48153
638.2699 17109.91876
638.4683 17127.63369
638.6667 17111.27042
638.8651 17301.36288
639.0635 17482.03468
639.2618 17589.51208
639.4602 17749.47892
639.6585 17702.06844
639.8568 18038.85690
640.0551 18130.76974
640.2534 18140.76383
640.4516 18405.54571
640.6499 18492.07239
640.8481 18798.55091
641.0463 18903.48883
641.2445 19186.66147
641.4427 19092.49587
641.6409 19219.96144
641.8390 19321.90933
642.0372 19488.08151
642.2353 19508.84791
642.4334 19597.52496
642.6315 19785.11890
642.8296 19800.99066
643.0277 19813.72902
643.2257 20318.67620
643.4237 20343.90717
643.6218 20306.38838
643.8198 20499.65520
644.0178 20739.59521
644.2157 20641.55895
644.4137 20772.50607
644.6116 21517.61854
644.8096 21590.81295
645.0075 21250.09238
645.2054 21616.53543
645.4033 21632.38671
645.6011 21648.42231
645.7990 21718.70859
645.9968 22013.94377
646.1947 22142.63812
646.3925 22321.30292
