# Averages = 100
# wavelength [µm]	intensity
446.8250 14.33578
447.0374 36746.70328
447.2498 1228.51501
447.4621 1223.96852
447.6745 1224.74675
447.8868 1233.22534
448.0992 1244.98068
448.3115 1231.09545
448.5238 1246.55762
448.7360 1238.16095
448.9483 1244.46869
449.1606 1235.15043
449.3728 1268.36849
449.5850 1239.79932
449.7972 1245.77939
450.0094 1241.60153
450.2216 1253.43879
450.4337 1244.81685
450.6459 1693.13768
450.8580 2038.03610
451.0701 2071.19272
451.2822 2087.88366
451.4943 2074.59234
451.7064 2059.15066
451.9184 2054.41985
452.1305 2111.84490
452.3425 2233.49424
452.5545 2152.59947
452.7665 2142.89210
452.9785 2261.98148
453.1905 2302.51079
453.4024 2225.15901
453.6143 2317.99343
453.8263 2309.47388
454.0382 2424.26253
454.2501 2277.40269
454.4619 2264.21377
454.6738 2407.67398
454.8856 2467.80234
455.0975 2321.24970
455.3093 2325.77571
455.5211 2406.09705
455.7329 2358.23602
455.9446 2404.47915
456.1564 2402.06255
456.3681 2470.83334
456.5798 2537.47424
456.7916 2461.24884
457.0033 2469.09256
457.2149 2425.14315
457.4266 2460.08150
457.6382 2520.10747
457.8499 2484.43185
458.0615 2600.44928
458.2731 2514.80323
458.4847 2601.20703
458.6963 2617.79558
458.9078 2654.00366
459.1194 2808.21571
459.3309 2807.17125
459.5424 2667.88889
459.7539 2568.41905
459.9654 2627.52343
460.1769 2688.79865
460.3883 2682.57283
460.5998 2530.98218
460.8112 2517.11743
461.0226 2582.30428
461.2340 2701.29126
461.4454 2636.12490
461.6567 2589.84080
461.8681 2579.15040
462.0794 2539.41981
462.2907 2664.69406
462.5020 2730.22906
462.7133 2832.38174
462.9246 2898.67449
463.1359 2735.86097
463.3471 2493.85251
463.5583 2568.95152
463.7696 2908.50474
463.9808 2764.20486
464.1919 2652.75440
464.4031 2662.66657
464.6143 2806.63877
464.8254 2645.05404
465.0365 2617.95941
465.2476 2733.64917
465.4587 2782.26795
465.6698 2619.51587
465.8809 2585.97014
466.0919 2604.36090
466.3030 2775.96020
466.5140 2750.74971
466.7250 2635.08043
466.9360 2690.10935
467.1469 2631.49649
467.3579 2522.38071
467.5688 2529.67148
467.7798 2626.84760
467.9907 2816.14135
468.2016 2628.91605
468.4125 2618.24613
468.6233 2509.88810
468.8342 2524.98163
469.0450 2794.20760
469.2559 2779.93326
469.4667 2764.55302
469.6775 2553.05928
469.8882 2580.23583
470.0990 2626.95000
470.3098 2796.95188
470.5205 2663.32192
470.7312 2789.98879
470.9419 2905.69902
471.1526 2738.97389
471.3633 2618.02085
471.5739 2659.96325
471.7846 2633.74925
471.9952 2474.23297
472.2058 2538.47775
472.4164 2513.79972
472.6270 2573.57993
472.8376 2611.24208
473.0481 2752.34712
473.2587 2804.20169
473.4692 2723.02021
473.6797 2663.54720
473.8902 2587.17844
474.1007 2515.60193
474.3111 2502.76117
474.5216 2453.50752
474.7320 2561.43548
474.9424 2705.42816
475.1528 2772.39674
475.3632 2594.22345
475.5736 2587.40372
475.7840 2543.08568
475.9943 2557.23714
476.2046 2606.28599
476.4149 2635.26475
476.6252 2717.63405
476.8355 2860.33651
477.0458 2874.32414
477.2561 2910.28647
477.4663 2781.16204
477.6765 2719.53866
477.8867 2677.82154
478.0969 2686.56637
478.3071 2711.32631
478.5173 2664.03871
478.7274 2751.09786
478.9375 2888.84424
479.1477 2891.99811
479.3578 2883.23280
479.5679 2981.06427
479.7779 2836.80535
479.9880 2783.43529
480.1980 2864.18670
480.4081 2929.49642
480.6181 2849.27748
480.8281 2746.10082
481.0381 2875.57340
481.2480 2931.40103
481.4580 2847.68007
481.6679 2851.28449
481.8778 2788.37089
482.0877 2873.89407
482.2976 2890.56453
482.5075 2934.30915
482.7174 2908.40234
482.9272 2916.77853
483.1371 2862.36400
483.3469 2879.77174
483.5567 2975.39140
483.7665 2984.32054
483.9762 2993.20873
484.1860 2966.99473
484.3957 3007.74930
484.6055 2936.78719
484.8152 2978.36095
485.0249 3028.70003
485.2346 2997.01795
485.4442 3027.28693
485.6539 3093.82543
485.8635 3081.41474
486.0732 3019.79136
486.2828 3056.69576
486.4924 3050.28562
486.7019 3044.59226
486.9115 3076.80681
487.1210 3130.68887
487.3306 3138.04108
487.5401 3167.22463
487.7496 3166.32353
487.9591 3253.68987
488.1686 3226.96388
488.3780 3185.45155
488.5875 3223.09322
488.7969 3235.05336
489.0063 3223.46185
489.2157 3287.80903
489.4251 3256.72087
489.6345 3288.38246
489.8438 3277.20055
490.0531 3263.45868
490.2625 3302.63632
490.4718 3278.94133
490.6811 3342.98131
490.8903 3390.22795
491.0996 3385.92721
491.3089 3395.40931
491.5181 3415.68420
491.7273 3433.76776
491.9365 3431.04397
492.1457 3497.68487
492.3549 3490.35314
492.5640 3485.68377
492.7732 3512.69648
492.9823 3520.82692
493.1914 3598.69069
493.4005 3577.73997
493.6096 3571.00215
493.8187 3558.46858
494.0277 3632.52313
494.2368 3627.81280
494.4458 3674.89560
494.6548 3724.00590
494.8638 3746.73835
495.0728 3682.51405
495.2817 3746.47211
495.4907 3715.42491
495.6996 3793.04292
495.9085 3788.59883
496.1174 3830.88938
496.3263 3830.64363
496.5352 3873.28234
496.7440 3881.61757
496.9529 3918.52197
497.1617 3940.35331
497.3705 3929.70388
497.5793 3994.80880
497.7881 3962.61473
497.9969 4024.11524
498.2056 4060.93771
498.4144 4082.76906
498.6231 4091.04285
498.8318 4124.52714
499.0405 4161.71826
499.2492 4094.81112
499.4578 4195.87837
499.6665 4186.76491
499.8751 4279.31262
500.0837 4293.85320
500.2923 4304.72791
500.5009 4282.09786
500.7095 4346.77271
500.9180 4366.04410
501.1266 4425.51711
501.3351 4438.48075
501.5436 4480.93515
501.7521 4469.44604
501.9606 4520.52238
502.1691 4542.33325
502.3775 4551.52863
502.5860 4602.64593
502.7944 4614.05311
503.0028 4686.51025
503.2112 4708.15728
503.4196 4708.85359
503.6279 4816.18763
503.8363 4745.24599
504.0446 4866.21951
504.2529 4894.56339
504.4612 4932.02074
504.6695 4943.96040
504.8778 4948.58881
505.0860 4988.58564
505.2943 5017.48248
505.5025 5101.28536
505.7107 5101.96119
505.9189 5179.21057
506.1271 5222.66847
506.3353 5226.33433
506.5434 5217.07751
506.7516 5316.44496
506.9597 5314.02835
507.1678 5350.64603
507.3759 5405.14248
507.5840 5415.85336
507.7920 5463.77583
508.0001 5459.53653
508.2081 5585.91668
508.4161 5581.61595
508.6241 5648.07254
508.8321 5627.36757
509.0401 5698.71880
509.2480 5728.94682
509.4560 5715.59407
509.6639 5813.42553
509.8718 5850.26849
510.0797 5876.91256
510.2876 5876.70777
510.4955 6044.68216
510.7033 6086.29689
510.9112 6130.20534
511.1190 6158.65163
511.3268 6132.82674
511.5346 6225.35397
511.7424 6246.61188
511.9501 6317.79928
512.1579 6376.78078
512.3656 6431.15435
512.5733 6414.89348
512.7810 6524.45980
512.9887 6606.97246
513.1964 6649.32446
513.4040 6675.86613
513.6117 6710.41537
513.8193 6781.56180
514.0269 6809.82377
514.2345 6897.10820
514.4421 6899.34048
514.6497 6936.20392
514.8572 7041.18280
515.0647 7068.95325
515.2723 7166.66184
515.4798 7187.69448
515.6873 7292.22281
515.8947 7260.31545
516.1022 7315.40581
516.3097 7372.83086
516.5171 7503.28647
516.7245 7515.75860
516.9319 7567.63365
517.1393 7659.73080
517.3467 7709.35308
517.5540 7748.61264
517.7614 7843.94559
517.9687 7780.25376
518.1760 7878.69962
518.3833 7939.11470
518.5906 7960.20877
518.7978 8133.34405
519.0051 8087.34667
519.2123 8238.03622
519.4196 8170.61708
519.6268 8307.23708
519.8340 8358.14958
520.0411 8483.25999
520.2483 8540.82840
520.4554 8557.41694
520.6626 8648.36723
520.8697 8700.56996
521.0768 8849.31393
521.2839 8863.07628
521.4909 8924.98637
521.6980 9118.92901
521.9050 9154.52271
522.1121 9233.04183
522.3191 9290.18016
522.5261 9341.31794
522.7331 9473.84200
522.9400 9619.26826
523.1470 9617.62988
523.3539 9700.42926
523.5608 9736.61687
523.7677 9799.67383
523.9746 9870.51307
524.1815 9960.07074
524.3884 10051.12343
524.5952 10039.69576
524.8020 10229.31719
525.0089 10179.94066
525.2157 10311.03114
525.4225 10382.62813
525.6292 10443.71904
525.8360 10504.56419
526.0427 10638.03031
526.2494 10728.36622
526.4562 10809.95729
526.6629 10823.49436
526.8695 10893.37106
527.0762 11074.96445
527.2829 11076.09083
527.4895 11308.92440
527.6961 11399.03502
527.9027 11492.27904
528.1093 11484.49676
528.3159 11558.30555
528.5224 11620.60476
528.7290 11878.52595
528.9355 11821.40810
529.1420 12074.98759
529.3485 11982.23508
529.5550 12183.85761
529.7615 12186.86812
529.9680 12395.04414
530.1744 12433.46404
530.3808 12572.86927
530.5872 12530.33296
530.7936 12677.62287
531.0000 12763.30988
531.2064 12843.71314
531.4127 12937.77634
531.6191 13058.91369
531.8254 13091.70167
532.0317 13237.84472
532.2380 13254.28991
532.4443 13464.57534
532.6505 13314.64355
532.8568 13578.68816
533.0630 13740.94873
533.2692 13755.22307
533.4754 13854.63147
533.6816 14071.12225
533.8878 14052.91581
534.0939 14298.61062
534.3001 14284.17244
534.5062 14384.09283
534.7123 14455.93558
534.9184 14487.86341
535.1245 14512.43903
535.3306 14658.88928
535.5366 14810.15225
535.7426 14951.35970
535.9487 15172.43792
536.1547 15014.15042
536.3607 15182.22721
536.5666 15193.71632
536.7726 15334.14554
536.9785 15452.55909
537.1845 15668.29212
537.3904 15593.15214
537.5963 15836.53275
537.8022 15897.00927
538.0080 16120.66793
538.2139 16171.88763
538.4197 16312.95172
538.6256 16297.57147
538.8314 16407.46548
539.0372 16486.94715
539.2430 16707.94345
539.4487 16444.18556
539.6545 16894.32909
539.8602 16823.26457
540.0659 16968.50652
540.2716 17294.60458
540.4773 17256.75812
540.6830 17553.34495
540.8887 17562.82705
541.0943 17466.79779
541.2999 17531.24737
541.5056 17625.45393
541.7112 17746.50937
541.9167 17746.69368
542.1223 18001.27668
542.3279 18049.91594
542.5334 18142.03357
542.7389 18430.28517
542.9444 18545.31958
543.1499 18632.05105
543.3554 18519.49469
543.5609 18803.28172
543.7663 18913.87203
543.9718 18806.08744
544.1772 19056.92265
544.3826 19054.36269
544.5880 19429.79632
544.7934 19444.91033
544.9987 19478.39462
545.2041 19848.72881
545.4094 19666.93062
545.6147 19852.21035
545.8200 20128.07175
546.0253 20148.30568
546.2306 20327.91254
546.4358 20233.46022
546.6411 20467.76832
546.8463 20438.01134
547.0515 20785.77691
547.2567 20772.17840
547.4619 20907.79489
547.6670 21077.42814
547.8722 21149.55760
548.0773 21507.37870
548.2824 21396.39927
548.4876 21427.89703
548.6926 21700.64551
548.8977 21869.56197
549.1028 22088.65367
549.3078 22079.04870
549.5129 22152.71413
549.7179 22210.26205
549.9229 22363.77779
550.1279 22296.35866
550.3328 22453.39690
550.5378 22317.80089
550.7427 22601.85416
550.9476 22658.39858
551.1526 22369.38923
551.3575 22797.39421
551.5623 22834.40101
551.7672 22793.76931
551.9720 23029.06044
552.1769 22986.93372
552.3817 23303.79545
552.5865 23038.62445
552.7913 23236.39680
552.9961 23189.86695
553.2008 23322.10429
553.4056 23636.44701
553.6103 23563.23213
553.8150 23913.33239
554.0197 23939.89454
554.2244 23824.63486
554.4291 23716.66595
554.6337 24046.36844
554.8384 24071.84517
555.0430 24063.67377
555.2476 23976.77846
555.4522 23924.86245
555.6568 24118.37502
555.8613 24254.03247
556.0659 24448.83525
556.2704 24219.21700
556.4750 24519.71545
556.6795 24546.19569
556.8839 24387.06852
557.0884 24634.62698
557.2929 24646.40280
557.4973 24563.33719
557.7018 24568.86670
557.9062 24629.05650
558.1106 24679.23174
558.3150 24694.48911
558.5193 24863.20077
558.7237 24885.78987
558.9280 24776.53073
559.1323 24726.88797
559.3367 24707.24795
559.5410 24834.83640
559.7452 24487.33707
559.9495 24947.61804
560.1537 24871.53600
560.3580 24865.67881
560.5622 25090.07475
560.7664 25174.73778
560.9706 25118.31624
561.1748 25333.10720
561.3789 25385.33040
561.5831 25319.44725
561.7872 25310.84578
561.9913 25408.06286
562.1954 25296.79672
562.3995 25501.26592
562.6036 25476.03494
562.8076 25209.88092
563.0117 25570.71254
563.2157 25549.76182
563.4197 25699.28401
563.6237 25611.73335
563.8277 25394.66914
564.0316 25314.67548
564.2356 25543.49503
564.4395 25639.21709
564.6434 25641.89993
564.8473 25911.88365
565.0512 25856.62945
565.2551 25862.89624
565.4590 25980.73636
565.6628 26032.44757
565.8666 26134.68217
566.0705 26042.46214
566.2743 25914.99656
566.4780 25952.61775
566.6818 25951.83952
566.8856 26277.24128
567.0893 26010.30903
567.2930 26086.75970
567.4967 25985.59005
567.7004 26150.20577
567.9041 26286.68241
568.1078 26164.52107
568.3114 26213.05793
568.5151 26308.82095
568.7187 25771.00388
568.9223 26236.48670
569.1259 26210.66181
569.3295 26562.11373
569.5330 26494.40788
569.7366 26412.93968
569.9401 26529.98110
570.1436 26557.40340
570.3471 26849.23895
570.5506 26792.96077
570.7541 26632.05186
570.9575 26808.13621
571.1609 26607.41480
571.3644 26874.18321
571.5678 26894.10994
571.7712 27111.87046
571.9746 27045.76203
572.1779 26839.14246
572.3813 26690.64425
572.5846 27116.92894
572.7879 26996.30358
572.9912 27286.17308
573.1945 27252.03344
573.3978 27055.87899
573.6010 27177.73313
573.8043 27444.56298
574.0075 26954.13591
574.2107 27116.25311
574.4139 26941.04939
574.6171 27077.42363
574.8203 26723.37079
575.0234 27004.22922
575.2266 26700.61785
575.4297 26787.26741
575.6328 26848.82935
575.8359 26913.91380
576.0390 26304.06967
576.2420 26487.97726
576.4451 26140.82608
576.6481 26454.45201
576.8512 26760.29566
577.0542 26184.03822
577.2571 26459.22378
577.4601 26420.55813
577.6631 26154.11739
577.8660 26146.78567
578.0689 25758.32695
578.2719 25856.87521
578.4748 25897.26115
578.6776 25696.10966
578.8805 25676.94067
579.0834 25431.24586
579.2862 25690.31391
579.4890 25774.60830
579.6918 25889.68367
579.8946 25411.72872
580.0974 25534.11533
580.3002 25341.81107
580.5029 25167.22173
580.7057 25409.66027
580.9084 24980.91802
581.1111 25311.41921
581.3138 25081.41184
581.5164 24922.01843
581.7191 24822.28236
581.9217 24777.73904
582.1244 24541.64920
582.3270 24478.77656
582.5296 24608.76113
582.7322 24705.22046
582.9347 24599.95487
583.1373 24327.28831
583.3398 24334.04661
583.5424 24217.16903
583.7449 24157.71650
583.9474 24092.63205
584.1498 23864.77505
584.3523 24127.09936
584.5548 23849.94775
584.7572 23864.34497
584.9596 23946.36612
585.1620 24180.87902
585.3644 23718.16096
585.5668 23660.63352
585.7691 23772.28878
585.9715 23609.57766
586.1738 23743.14618
586.3761 23578.14134
586.5784 23747.26260
586.7807 23700.30268
586.9830 23676.21856
587.1852 23530.77182
587.3875 23385.50940
587.5897 23574.10684
587.7919 23451.18776
587.9941 23245.77649
588.1963 23233.14052
588.3984 23124.57770
588.6006 22891.55982
588.8027 23286.83827
589.0048 23130.06626
589.2069 23079.01040
589.4090 23249.33996
589.6111 23313.76905
589.8131 23313.56426
590.0152 23421.59461
590.2172 23087.85762
590.4192 23431.95733
590.6212 23151.59041
590.8232 22961.82563
591.0252 23222.16341
591.2271 23229.65898
591.4291 23212.82468
591.6310 23071.22812
591.8329 23003.11268
592.0348 23138.40149
592.2367 23060.37388
592.4385 23295.17350
592.6404 23504.23015
592.8422 23559.19763
593.0440 23631.85956
593.2458 23769.54450
593.4476 23743.49434
593.6494 23805.54779
593.8512 23920.31596
594.0529 23890.19034
594.2546 23893.22133
594.4563 23831.70035
594.6580 23744.96888
594.8597 23743.43290
595.0614 23730.55117
595.2630 23987.01830
595.4647 23990.76608
595.6663 23857.03372
595.8679 24001.29264
596.0695 24246.63930
596.2711 24065.61934
596.4727 24124.90804
596.6742 24226.30297
596.8757 24378.69233
597.0773 24435.95353
597.2788 24184.38105
597.4802 24383.73033
597.6817 24532.24902
597.8832 24349.22205
598.0846 24493.50145
598.2860 24385.14343
598.4875 24168.85745
598.6889 24581.80987
598.8902 24573.67943
599.0916 24698.25737
599.2930 24530.65161
599.4943 24750.60345
599.6956 24753.96212
599.8969 24631.08399
600.0982 24539.51931
600.2995 24377.81170
600.5008 24800.26669
600.7020 24612.48844
600.9032 24807.55746
601.1045 24845.50632
601.3057 24705.77341
601.5068 24974.18020
601.7080 25077.76646
601.9092 24728.62875
602.1103 25131.05460
602.3115 25055.95559
602.5126 25021.83643
602.7137 24880.91570
602.9147 24991.89513
603.1158 25137.91530
603.3169 25218.54383
603.5179 25317.80888
603.7189 25085.36442
603.9199 25254.36280
604.1209 25029.82351
604.3219 25113.66735
604.5229 25295.50650
604.7238 25267.51076
604.9247 25247.74786
605.1257 25264.68457
605.3266 25360.59094
605.5275 25217.17169
605.7283 25289.28067
605.9292 25462.86650
606.1300 24962.46582
606.3309 25050.77423
606.5317 25314.88028
606.7325 25545.87067
606.9332 25475.40007
607.1340 25426.22834
607.3348 25369.58153
607.5355 25252.02812
607.7362 25501.67551
607.9369 25099.02437
608.1376 25359.93559
608.3383 25253.01114
608.5390 25380.08760
608.7396 25298.20981
608.9402 25548.73783
609.1409 25549.47510
609.3415 25296.36664
609.5421 25271.91390
609.7426 25296.16185
609.9432 25212.05177
610.1437 24937.13244
610.3443 25447.83441
610.5448 25245.20838
610.7453 25353.38209
610.9457 25163.61731
611.1462 25207.89439
611.3467 25082.33343
611.5471 25289.54691
611.7475 25035.14823
611.9479 25360.85718
612.1483 24988.45454
612.3487 25341.48339
612.5491 24926.87212
612.7494 25385.90384
612.9497 24925.27470
613.1501 25096.03434
613.3504 25019.21503
613.5506 25480.15136
613.7509 25142.85090
613.9512 24827.44324
614.1514 24794.55286
614.3516 25174.55346
614.5519 24972.33703
614.7521 25109.48949
614.9522 24899.24502
615.1524 24716.01326
615.3526 24898.24152
615.5527 25117.29225
615.7528 24744.15235
615.9529 24718.71658
616.1530 24846.50983
616.3531 25041.18974
616.5532 25033.81705
616.7532 24641.11904
616.9532 24623.52699
617.1533 24404.90633
617.3533 24561.41210
617.5532 24365.25765
617.7532 24399.76592
617.9532 24143.76983
618.1531 24548.20270
618.3530 24029.24742
618.5530 24158.04417
618.7528 24172.13420
618.9527 24167.56723
619.1526 23897.35823
619.3524 23835.18190
619.5523 23872.96692
619.7521 23797.04872
619.9519 23801.92289
620.1517 23767.00502
620.3515 23795.12363
620.5512 23812.18321
620.7510 23665.65105
620.9507 23402.95809
621.1504 23265.45747
621.3501 23398.67784
621.5498 23492.43385
621.7495 23303.30393
621.9492 23270.98699
622.1488 22879.12865
622.3484 22815.74401
622.5480 22621.92425
622.7476 23082.65578
622.9472 22639.06575
623.1468 22597.57390
623.3463 23160.78579
623.5459 22926.49816
623.7454 22609.00157
623.9449 22619.11853
624.1444 22620.47019
624.3439 22690.71552
624.5433 22348.29515
624.7428 22336.37597
624.9422 22095.90348
625.1416 22062.84926
625.3410 21902.49331
625.5404 21947.54862
625.7398 21684.91711
625.9391 21751.66041
626.1385 21445.63244
626.3378 21429.02341
626.5371 21696.18094
626.7364 21243.53888
626.9357 21261.13094
627.1350 21118.91999
627.3342 20977.18007
627.5335 20865.56577
627.7327 20845.00417
627.9319 20802.05826
628.1311 21129.42607
628.3303 20617.53628
628.5294 20627.65324
628.7286 20646.26928
628.9277 20641.39511
629.1268 20423.22500
629.3259 20512.02493
629.5250 20413.74291
629.7241 20273.37513
629.9231 19830.62476
630.1222 20102.75885
630.3212 20024.34213
630.5202 19713.00992
630.7192 19708.72966
630.9182 19476.08041
631.1171 19409.33711
631.3161 19259.58964
631.5150 19019.67010
631.7140 19121.88422
631.9129 19086.74107
632.1118 19074.20751
632.3106 19013.83339
632.5095 18886.79789
632.7083 18629.69589
632.9072 18610.54738
633.1060 18605.12026
633.3048 18285.73954
633.5036 18247.64732
633.7023 18215.22797
633.9011 18199.72485
634.0998 18344.06569
634.2986 17949.19683
634.4973 17938.38356
634.6960 17820.40008
634.8947 17706.63541
635.0933 17615.43937
635.2920 17546.05418
635.4906 17293.37580
635.6892 17282.33725
635.8878 17331.07890
636.0864 17302.87838
636.2850 16970.18585
636.4836 16919.49863
636.6821 16771.81960
636.8806 16782.40760
637.0792 16759.63418
637.2777 16587.76865
637.4761 16443.91932
637.6746 16271.29604
637.8731 16471.21875
638.0715 16180.48910
638.2699 16197.75348
638.4683 16127.03712
638.6667 15893.13861
638.8651 15923.53046
639.0635 15830.71652
639.2618 15719.14318
639.4602 15636.26189
639.6585 15444.61297
639.8568 15509.82030
640.0551 15301.97195
640.2534 15123.24571
640.4516 15157.36487
640.6499 15095.08614
640.8481 15170.49235
641.0463 15031.27144
641.2445 15016.52606
641.4427 14862.82601
641.6409 14761.57443
641.8390 14711.89071
642.0372 14774.18992
642.2353 14621.75961
642.4334 14502.73166
642.6315 14511.47649
642.8296 14327.67129
643.0277 14134.22017
643.2257 14310.26356
643.4237 14164.44818
643.6218 13963.23525
643.8198 13918.85577
644.0178 13826.43094
644.2157 13739.35131
644.4137 13692.47331
644.6116 13868.16855
644.8096 13855.43018
645.0075 13479.46408
