# Averages = 100
# wavelength [µm]	intensity
446.8250 14.33578
447.0374 36746.70328
447.2498 1228.06446
447.4621 1217.96797
447.6745 1226.67184
447.8868 1233.59398
448.0992 1243.28087
448.3115 1246.90577
448.5238 1253.41831
448.7360 1239.47165
448.9483 1242.78936
449.1606 1242.13401
449.3728 1271.80907
449.5850 1235.08899
449.7972 1250.16204
450.0094 1236.89121
450.2216 1247.84784
450.4337 1248.01168
450.6459 1675.77091
450.8580 1985.32139
451.0701 2011.96546
451.2822 2042.19348
451.4943 2024.90862
451.7064 2017.92505
451.9184 2008.72967
452.1305 2064.59826
452.3425 2169.10610
452.5545 2103.30487
452.7665 2089.09196
452.9785 2201.85312
453.1905 2227.02266
453.4024 2165.17400
453.6143 2250.41046
453.8263 2236.75051
454.0382 2348.11905
454.2501 2214.46861
454.4619 2194.66475
454.6738 2337.71537
454.8856 2393.25628
455.0975 2253.99441
455.3093 2255.83758
455.5211 2327.61888
455.7329 2282.48165
455.9446 2330.50652
456.1564 2333.49655
456.3681 2390.86016
456.5798 2451.21380
456.7916 2398.58100
457.0033 2384.28618
457.2149 2344.20743
457.4266 2375.47991
457.6382 2435.99739
457.8499 2404.49963
458.0615 2521.02905
458.2731 2425.51179
458.4847 2514.78275
458.6963 2545.33844
458.9078 2560.69821
459.1194 2704.03554
459.3309 2720.03018
459.5424 2570.44654
459.7539 2480.64311
459.9654 2530.32683
460.1769 2592.52364
460.3883 2584.67992
460.5998 2448.94055
460.8112 2415.21051
461.0226 2498.52187
461.2340 2599.60961
461.4454 2547.24305
461.6567 2501.12280
461.8681 2491.45638
462.0794 2454.34719
462.2907 2559.96094
462.5020 2640.60995
462.7133 2737.78606
462.9246 2782.14507
463.1359 2629.59188
463.3471 2416.23449
463.5583 2468.90825
463.7696 2792.71259
463.9808 2658.95975
464.1919 2554.61574
464.4031 2557.42146
464.6143 2709.48314
464.8254 2551.11371
465.0365 2526.18993
465.2476 2619.70019
465.4587 2675.22062
465.6698 2509.76522
465.8809 2494.67169
466.0919 2514.02500
466.3030 2672.39442
466.5140 2637.66087
466.7250 2533.23495
466.9360 2591.25390
467.1469 2534.36133
467.3579 2432.65920
467.5688 2434.46141
467.7798 2532.39528
467.9907 2706.24735
468.2016 2529.22093
468.4125 2517.44511
468.6233 2416.88984
468.8342 2441.75218
469.0450 2681.22117
469.2559 2681.93796
469.4667 2661.02820
469.6775 2463.93168
469.8882 2481.70805
470.0990 2526.31281
470.3098 2682.79810
470.5205 2550.88844
470.7312 2693.65234
470.9419 2776.28788
471.1526 2623.30461
471.3633 2521.17241
471.5739 2555.98788
471.7846 2543.49527
471.9952 2390.92160
472.2058 2448.46952
472.4164 2425.65515
472.6270 2469.72743
472.8376 2506.34512
473.0481 2641.04002
473.2587 2695.37263
473.4692 2632.64335
473.6797 2560.92348
473.8902 2489.16266
474.1007 2426.12618
474.3111 2411.95424
474.5216 2364.83047
474.7320 2467.18795
474.9424 2587.01460
475.1528 2658.20200
475.3632 2483.32595
475.5736 2488.17963
475.7840 2454.63390
475.9943 2467.37227
476.2046 2504.13331
476.4149 2517.07647
476.6252 2599.01570
476.8355 2733.64917
477.0458 2747.67775
477.2561 2779.62607
477.4663 2664.69406
477.6765 2601.06367
477.8867 2575.60742
478.0969 2593.91626
478.3071 2588.44818
478.5173 2553.69415
478.7274 2626.23321
478.9375 2764.36870
479.1477 2772.29434
479.3578 2749.60284
479.5679 2851.83744
479.7779 2702.62244
479.9880 2660.86436
480.1980 2739.42444
480.4081 2789.90687
480.6181 2734.36596
480.8281 2623.14077
481.0381 2752.28568
481.2480 2796.09173
481.4580 2723.38884
481.6679 2709.13498
481.8778 2659.49222
482.0877 2728.07869
482.2976 2773.29784
482.5075 2807.82660
482.7174 2777.25042
482.9272 2779.27791
483.1371 2734.81651
483.3469 2755.43955
483.5567 2831.37824
483.7665 2846.47177
483.9762 2854.04925
484.1860 2823.30924
484.3957 2856.34298
484.6055 2805.57383
484.8152 2845.07915
485.0249 2883.43760
485.2346 2856.62969
485.4442 2876.49499
485.6539 2938.03645
485.8635 2928.18572
486.0732 2861.21714
486.2828 2899.47320
486.4924 2900.29238
486.7019 2882.67985
486.9115 2918.66266
487.1210 2967.34288
487.3306 2969.71852
487.5401 3021.61405
487.7496 3002.11739
487.9591 3077.89223
488.1686 3066.03450
488.3780 3030.80943
488.5875 3054.01292
488.7969 3060.77122
489.0063 3047.50038
489.2157 3116.57836
489.4251 3100.68613
489.6345 3112.48243
489.8438 3113.11730
490.0531 3102.07875
490.2625 3133.88370
490.4718 3102.36546
490.6811 3158.97132
490.8903 3190.26428
491.0996 3214.73751
491.3089 3206.83235
491.5181 3228.80705
491.7273 3231.91996
491.9365 3246.76774
492.1457 3281.86992
492.3549 3279.82195
492.5640 3277.46679
492.7732 3319.98262
492.9823 3307.98152
493.1914 3386.05009
493.4005 3380.70489
493.6096 3355.74015
493.8187 3362.15030
494.0277 3416.95394
494.2368 3421.86907
494.4458 3455.72199
494.6548 3483.84060
494.8638 3523.53023
495.0728 3461.06719
495.2817 3523.59167
495.4907 3493.69133
495.6996 3557.69035
495.9085 3565.94367
496.1174 3602.78662
496.3263 3585.84992
496.5352 3644.93382
496.7440 3644.03272
496.9529 3657.13972
497.1617 3700.24946
497.3705 3668.50594
497.5793 3756.85531
497.7881 3725.68523
497.9969 3774.67264
498.2056 3787.57485
498.4144 3820.81338
498.6231 3816.18497
498.8318 3844.63125
499.0405 3884.32089
499.2492 3837.36097
499.4578 3925.09595
499.6665 3920.79521
499.8751 3986.98556
500.0837 4001.07559
500.2923 4000.60455
500.5009 3997.08205
500.7095 4063.49768
500.9180 4074.45431
501.1266 4115.00409
501.3351 4129.33987
501.5436 4175.15293
501.7521 4159.09686
501.9606 4205.89294
502.1691 4214.84257
502.3775 4253.59013
502.5860 4284.10487
502.7944 4291.78475
503.0028 4349.63987
503.2112 4398.58632
503.4196 4355.59946
503.6279 4460.08682
503.8363 4402.33410
504.0446 4516.01685
504.2529 4529.39009
504.4612 4559.96626
504.6695 4567.35943
504.8778 4590.60387
505.0860 4614.79038
505.2943 4615.97820
505.5025 4705.24916
505.7107 4714.93605
505.9189 4765.97144
506.1271 4801.93377
506.3353 4809.73653
506.5434 4822.61825
506.7516 4880.00234
506.9597 4882.84901
507.1678 4922.82536
507.3759 4980.27089
507.5840 4975.21240
507.7920 5017.17528
508.0001 5011.68673
508.2081 5131.80009
508.4161 5095.38721
508.6241 5155.86373
508.8321 5165.32534
509.0401 5222.27935
509.2480 5262.17378
509.4560 5232.51920
509.6639 5319.20971
509.8718 5334.24180
510.0797 5388.32866
510.2876 5357.24049
510.4955 5535.82337
510.7033 5531.27688
510.9112 5596.19749
511.1190 5601.09213
511.3268 5594.76391
511.5346 5681.51587
511.7424 5681.16771
511.9501 5757.31119
512.1579 5796.24308
512.3656 5855.28601
512.5733 5815.92405
512.7810 5942.36565
512.9887 5979.70012
513.1964 6017.19842
513.4040 6039.54176
513.6117 6073.27181
513.8193 6112.85904
514.0269 6161.49830
514.2345 6237.41650
514.4421 6235.32758
514.6497 6295.47642
514.8572 6343.82896
515.0647 6361.13430
515.2723 6458.59713
515.4798 6463.12314
515.6873 6562.30627
515.8947 6512.80686
516.1022 6575.94574
516.3097 6606.05088
516.5171 6707.79397
516.7245 6708.55171
516.9319 6764.37934
517.1393 6828.07117
517.3467 6875.72740
517.5540 6923.50651
517.7614 6996.18893
517.9687 6952.71055
518.1760 7017.30348
518.3833 7089.94493
518.5906 7097.62482
518.7978 7228.03947
519.0051 7197.42233
519.2123 7322.40987
519.4196 7255.87136
519.6268 7365.72441
519.8340 7413.48304
520.0411 7479.81675
520.2483 7580.94544
520.4554 7575.41593
520.6626 7645.94797
520.8697 7673.61603
521.0768 7781.46206
521.2839 7827.72568
521.4909 7876.52877
521.6980 8013.02589
521.9050 8039.91572
522.1121 8094.51457
522.3191 8141.18777
522.5261 8179.75102
522.7331 8242.17311
522.9400 8392.06395
523.1470 8401.34124
523.3539 8430.85247
523.5608 8500.38101
523.7677 8525.36623
523.9746 8580.21083
524.1815 8663.89084
524.3884 8754.90257
524.5952 8705.71036
524.8020 8879.56243
525.0089 8815.58388
525.2157 8911.22402
525.4225 8967.89132
525.6292 9000.47450
525.8360 9068.32371
526.0427 9120.60835
526.2494 9201.93319
526.4562 9295.95543
526.6629 9250.06045
526.8695 9322.25135
527.0762 9452.58408
527.2829 9455.53316
527.4895 9672.90456
527.6961 9728.36355
527.9027 9766.35338
528.1093 9778.19063
528.3159 9807.41515
528.5224 9874.28133
528.7290 10042.15333
528.9355 10005.02365
529.1420 10207.03529
529.3485 10101.13483
529.5550 10262.10517
529.7615 10250.69798
529.9680 10379.94529
530.1744 10437.32938
530.3808 10506.10017
530.5872 10462.90851
530.7936 10555.92725
531.0000 10626.47977
531.2064 10685.09264
531.4127 10739.22045
531.6191 10836.88808
531.8254 10841.27073
532.0317 10944.57028
532.2380 10928.67804
532.4443 11088.37864
532.6505 10952.10680
532.8568 11154.67139
533.0630 11293.95375
533.2692 11252.70765
533.4754 11322.64579
533.6816 11486.11465
533.8878 11462.95213
534.0939 11599.89980
534.3001 11578.43708
534.5062 11645.54902
534.7123 11709.09749
534.9184 11680.20065
535.1245 11703.17886
535.3306 11786.46975
535.5366 11891.12095
535.7426 11974.43232
535.9487 12137.30728
536.1547 11979.51128
536.3607 12075.58150
536.5666 12073.26729
536.7726 12156.14859
536.9785 12225.59521
537.1845 12394.90079
537.3904 12303.04939
537.5963 12442.57750
537.8022 12443.64244
538.0080 12570.24787
538.2139 12588.12664
538.4197 12685.03652
538.6256 12653.08821
538.8314 12732.48795
539.0372 12741.70381
539.2430 12926.59443
539.4487 12687.28928
539.6545 12986.64088
539.8602 12892.02472
540.0659 12957.94883
540.2716 13186.99366
540.4773 13105.91458
540.6830 13308.39725
540.8887 13307.41422
541.0943 13205.22058
541.2999 13200.40785
541.5056 13229.52997
541.7112 13330.86346
541.9167 13258.87736
542.1223 13386.22006
542.3279 13390.78703
542.5334 13423.86172
542.7389 13588.55937
542.9444 13639.82003
543.1499 13694.05024
543.3554 13588.35458
543.5609 13707.44396
543.7663 13798.41473
543.9718 13630.09218
544.1772 13792.51658
544.3826 13739.33083
544.5880 13940.01129
544.7934 13902.88162
544.9987 13886.43643
545.2041 14107.59657
545.4094 13966.77824
545.6147 14014.00440
545.8200 14105.28237
546.0253 14107.63753
546.2306 14154.53602
546.4358 14044.47817
546.6411 14215.89316
546.8463 14113.18753
547.0515 14287.42871
547.2567 14270.77872
547.4619 14294.06413
547.6670 14370.00281
547.8722 14327.75321
548.0773 14512.54143
548.2824 14348.66297
548.4876 14311.82002
548.6926 14426.87490
548.8977 14504.57483
549.1028 14576.92957
549.3078 14503.89900
549.5129 14506.88904
549.7179 14513.29918
549.9229 14520.75379
550.1279 14433.16216
550.3328 14435.82452
550.5378 14256.15623
550.7427 14409.67196
550.9476 14408.01311
551.1526 14153.75779
551.3575 14353.84433
551.5623 14285.89273
551.7672 14171.45224
551.9720 14188.53230
552.1769 14124.75855
552.3817 14270.84016
552.5865 14040.85327
552.7913 14039.80881
552.9961 13953.81460
553.2008 13969.42012
553.4056 14078.74069
553.6103 13952.23766
553.8150 14045.29736
554.0197 14012.93946
554.2244 13891.29011
554.4291 13751.88488
554.6337 13871.97777
554.8384 13773.10184
555.0430 13701.87348
555.2476 13602.91563
555.4522 13472.02995
555.6568 13504.32642
555.8613 13462.69121
556.0659 13556.48818
556.2704 13295.10593
556.4750 13344.50294
556.6795 13297.19486
556.8839 13144.55975
557.0884 13207.37095
557.2929 13122.27785
557.4973 12999.85028
557.7018 12951.37485
557.9062 12865.81072
558.1106 12781.70064
558.3150 12683.97158
558.5193 12708.52672
558.7237 12615.97901
558.9280 12455.43874
559.1323 12366.31114
559.3367 12312.81820
559.5410 12233.43893
559.7452 12004.00499
559.9495 12123.54493
560.1537 12027.57711
560.3580 11906.46024
560.5622 11944.34766
560.7664 11871.43997
560.9706 11742.72514
561.1748 11699.98403
561.3789 11665.12760
561.5831 11564.51090
561.7872 11474.72795
561.9913 11429.87743
562.1954 11310.80853
562.3995 11281.85025
562.6036 11167.75791
562.8076 10987.82338
563.0117 11017.29365
563.2157 10895.70574
563.4197 10909.75481
563.6237 10795.66247
563.8277 10633.81150
564.0316 10473.08691
564.2356 10484.41218
564.4395 10415.68235
564.6434 10311.25642
564.8473 10283.17877
565.0512 10142.52428
565.2551 10088.29406
565.4590 10074.30644
565.6628 9983.97053
565.8666 9882.90328
566.0705 9762.91279
566.2743 9653.71509
566.4780 9566.45115
566.6818 9481.52188
566.8856 9479.92447
567.0893 9323.17294
567.2930 9251.94458
567.4967 9139.79782
567.7004 9083.97019
567.9041 9063.77722
568.1078 8950.44262
568.3114 8895.16795
568.5151 8830.57501
568.7187 8594.79237
568.9223 8619.59327
569.1259 8560.79609
569.3295 8530.87527
569.5330 8457.86518
569.7366 8365.29699
569.9401 8317.27213
570.1436 8241.14913
570.3471 8255.77162
570.5506 8144.40308
570.7541 8018.63732
570.9575 8006.67719
571.1609 7875.44335
571.3644 7855.51661
571.5678 7770.95598
571.7712 7720.55547
571.9746 7618.03416
572.1779 7523.19272
572.3813 7435.21199
572.5846 7456.59278
572.7879 7376.96775
572.9912 7367.54710
573.1945 7277.35455
573.3978 7172.58047
573.6010 7154.84506
573.8043 7149.80706
574.0075 6986.91163
574.2107 6965.28508
574.4139 6877.44770
574.6171 6821.80439
574.8203 6673.57241
575.0234 6687.80579
575.2266 6554.62638
575.4297 6521.94080
575.6328 6493.90411
575.8359 6451.69547
576.0390 6294.04284
576.2420 6284.58122
576.4451 6171.36951
576.6481 6184.00548
576.8512 6223.42888
577.0542 6075.19690
577.2571 6098.17511
577.4601 6037.26852
577.6631 5972.24551
577.8660 5908.28745
578.0689 5819.01649
578.2719 5802.93993
578.4748 5802.12075
578.6776 5749.18075
578.8805 5738.42892
579.0834 5652.82382
579.2862 5674.59373
579.4890 5673.38543
579.6918 5694.13135
579.8946 5560.62427
580.0974 5592.57258
580.3002 5573.01448
580.5029 5476.88283
580.7057 5504.94000
580.9084 5428.81700
581.1111 5464.32878
581.3138 5424.86442
581.5164 5360.04621
581.7191 5360.76300
581.9217 5357.50673
582.1244 5354.18902
582.3270 5329.30620
582.5296 5366.94787
582.7322 5367.88993
582.9347 5352.75544
583.1373 5309.87098
583.3398 5329.65435
583.5424 5316.46544
583.7449 5329.75675
583.9474 5292.89332
584.1498 5280.62598
584.3523 5321.54440
584.5548 5294.73649
584.7572 5321.25768
584.9596 5362.38090
585.1620 5409.85281
585.3644 5363.40488
585.5668 5381.97996
585.7691 5416.71351
585.9715 5403.52459
586.1738 5456.91513
586.3761 5453.94558
586.5784 5525.84976
586.7807 5511.28870
586.9830 5557.22464
587.1852 5563.96246
587.3875 5578.15488
587.5897 5645.45114
587.7919 5658.84485
587.9941 5660.42179
588.1963 5682.17122
588.3984 5699.92710
588.6006 5695.56493
588.8027 5805.92997
589.0048 5815.06391
589.2069 5864.72715
589.4090 5934.97248
589.6111 5951.27431
589.8131 6035.30247
590.0152 6091.86736
590.2172 6076.61000
590.4192 6180.87209
590.6212 6193.71285
590.8232 6182.08039
591.0252 6288.51332
591.2271 6333.54816
591.4291 6420.30011
591.6310 6411.49385
591.8329 6494.76426
592.0348 6581.29094
592.2367 6622.57799
592.4385 6749.59301
592.6404 6850.12779
592.8422 6917.26021
593.0440 7005.48670
593.2458 7100.55341
593.4476 7139.69010
593.6494 7213.02786
593.8512 7334.82056
594.0529 7417.00554
594.2546 7468.71675
594.4563 7492.84183
594.6580 7549.32480
594.8597 7629.89190
595.0614 7712.67079
595.2630 7805.05466
595.4647 7931.74201
595.6663 7978.88625
595.8679 8111.63558
596.0695 8261.75169
596.2711 8308.58874
596.4727 8387.37410
596.6742 8533.08707
596.8757 8647.99860
597.0773 8756.29519
597.2788 8766.35071
597.4802 8921.58675
597.6817 9038.58720
597.8832 9053.98792
598.0846 9176.45646
598.2860 9261.24236
598.4875 9273.93977
598.6889 9482.66874
598.8902 9581.23748
599.0916 9712.04124
599.2930 9746.65192
599.4943 9937.42020
599.6956 10020.28102
599.8969 10111.94810
600.0982 10179.18292
600.2995 10217.70521
600.5008 10457.17419
600.7020 10530.65531
600.9032 10676.53213
601.1045 10807.90932
601.3057 10840.49250
601.5068 11043.50765
601.7080 11178.46879
601.9092 11147.19630
602.1103 11445.27816
602.3115 11530.90373
602.5126 11610.30348
602.7137 11696.54344
602.9147 11852.53722
603.1158 12009.90314
603.3169 12168.72312
603.5179 12335.20250
603.7189 12366.72074
603.9199 12552.88110
604.1209 12583.74398
604.3219 12745.45160
604.5229 12912.58633
604.7238 12973.14476
604.9247 13120.06604
605.1257 13239.56502
605.3266 13382.34940
605.5275 13444.19805
605.7283 13613.46267
605.9292 13814.94184
606.1300 13671.46115
606.3309 13860.98018
606.5317 14081.32113
606.7325 14302.74751
606.9332 14426.83394
607.1340 14528.82278
607.3348 14646.00756
607.5355 14700.64736
607.7362 14930.75713
607.9369 14893.15642
608.1376 15143.78684
608.3383 15279.71053
608.5390 15443.13843
608.7396 15559.77025
608.9402 15807.14440
609.1409 15875.11648
609.3415 15825.71947
609.5421 15985.39960
609.7426 16152.65721
609.9432 16272.13570
610.1437 16266.54475
610.3443 16719.20728
610.5448 16755.88640
610.7453 16933.73201
610.9457 16896.11082
611.1462 17061.38190
611.3467 17099.78131
611.5471 17409.12699
611.7475 17352.09106
611.9479 17738.15365
612.1483 17575.27870
612.3487 17990.38148
612.5491 17892.36570
612.7494 18403.96877
612.9497 18211.56211
613.1501 18481.91446
613.3504 18549.59983
613.5506 18962.47033
613.7509 18911.98790
613.9512 18846.43242
614.1514 18969.96590
614.3516 19316.68701
614.5519 19297.57946
614.7521 19566.80543
614.9522 19550.68792
615.1524 19641.39245
615.3526 19928.31287
615.5527 20291.58157
615.7528 20126.37193
615.9529 20230.06059
616.1530 20539.87730
616.3531 20855.51025
616.5532 20995.14075
616.7532 20777.60551
616.9532 20948.48803
617.1533 20900.85227
617.3533 21189.26771
617.5532 21182.48894
617.7532 21394.28986
617.9532 21302.70470
618.1531 21826.08360
618.3530 21544.30358
618.5530 21842.71310
618.7528 22033.72715
618.9527 22216.83603
619.1526 22166.08737
619.3524 22197.68753
619.5523 22339.22265
619.7521 22475.02345
619.9519 22701.20112
620.1517 22835.95747
620.3515 23066.70210
620.5512 23166.66346
620.7510 23204.05937
620.9507 23209.42505
621.1504 23176.26843
621.3501 23454.42355
621.5498 23791.90832
621.7495 23812.53136
621.9492 23908.88829
622.1488 23746.15670
622.3484 23901.69992
622.5480 23932.84953
622.7476 24547.32207
622.9472 24204.65594
623.1468 24277.03116
623.3463 25048.33715
623.5459 25076.06664
623.7454 24935.61695
623.9449 25119.89317
624.1444 25294.15484
624.3439 25539.48101
624.5433 25430.95915
624.7428 25590.10680
624.9422 25522.76959
625.1416 25662.68681
625.3410 25658.71375
625.5404 25997.87786
625.7398 26002.56771
625.9391 26191.53378
626.1385 25885.83349
626.3378 26027.26621
626.5371 26647.10443
626.7364 26259.30107
626.9357 26464.48706
627.1350 26568.09380
627.3342 26634.40702
627.5335 26604.62956
627.7327 26814.44396
627.9319 26872.64723
628.1311 27536.00479
628.3303 27126.77967
628.5294 27211.23790
628.7286 27479.48085
628.9277 27863.72075
629.1268 27853.07131
629.3259 28159.63175
629.5250 28199.23947
629.7241 28218.69517
629.9231 27798.39054
630.1222 28393.28451
630.3212 28415.48449
630.5202 28218.12174
630.7192 28463.32504
630.9182 28384.84687
631.1171 28519.91041
631.3161 28556.61001
631.5150 28325.23050
631.7140 28674.79829
631.9129 28971.22129
632.1118 29176.18200
632.3106 29138.02834
632.5095 29263.75314
632.7083 29051.78838
632.9072 29192.46335
633.1060 29331.68427
633.3048 29069.50331
633.5036 29162.62445
633.7023 29467.21884
633.9011 29892.64339
634.0998 30178.68318
634.2986 29858.97478
634.4973 30207.53906
634.6960 30046.44584
634.8947 30140.42713
635.0933 30171.69961
635.2920 30329.29080
635.4906 30091.05060
635.6892 30445.30823
635.8878 30668.47539
636.0864 30899.97778
636.2850 30587.56014
636.4836 30746.35964
636.6821 30649.38832
636.8806 30973.19266
637.0792 31060.25181
637.2777 31135.92426
637.4761 31058.81823
637.6746 31190.99414
637.8731 31694.20054
638.0715 31325.40232
638.2699 31625.32735
638.4683 31569.43828
638.6667 31422.96756
638.8651 31591.20819
639.0635 31858.75483
639.2618 31801.26834
639.4602 31905.40755
639.6585 31758.30196
639.8568 32065.82495
640.0551 31917.63393
640.2534 31881.46680
640.4516 32148.25569
640.6499 32273.93953
640.8481 32728.36332
641.0463 32728.01516
641.2445 32977.66255
641.4427 32689.53383
641.6409 32791.95275
641.8390 32747.75758
642.0372 33024.80679
642.2353 32887.10138
642.4334 32871.82353
642.6315 33084.62796
642.8296 32945.67328
643.0277 32792.09610
643.2257 33527.48072
643.4237 33453.42617
643.6218 33289.85491
643.8198 33411.95481
644.0178 33481.15567
644.2157 33332.41170
644.4137 33448.87968
644.6116 34291.98746
644.8096 34420.25174
645.0075 33740.83811
645.2054 34155.12171
645.4033 33994.95007
645.6011 33957.24697
645.7990 33935.80473
645.9968 34267.53471
646.1947 34293.50295
646.3925 34592.21968
646.5903 34218.05579
646.7881 34591.58481
