# Averages = 100
# wavelength [µm]	intensity
446.8250 14.33578
447.0374 36746.70328
447.2498 1225.19730
447.4621 1213.29861
447.6745 1232.18088
447.8868 1238.34526
448.0992 1240.12700
448.3115 1239.16445
448.5238 1240.88475
448.7360 1237.44416
448.9483 1247.70448
449.1606 1234.41316
449.3728 1267.79505
449.5850 1236.05154
449.7972 1242.66648
450.0094 1236.85025
450.2216 1256.85890
450.4337 1252.47625
450.6459 1701.39100
450.8580 2059.23258
451.0701 2079.63035
451.2822 2103.81686
451.4943 2102.54712
451.7064 2071.84807
451.9184 2065.27409
452.1305 2124.39894
452.3425 2236.40235
452.5545 2172.36237
452.7665 2160.29984
452.9785 2281.37575
453.1905 2323.80966
453.4024 2252.41747
453.6143 2338.47312
453.8263 2330.44508
454.0382 2450.45605
454.2501 2289.56762
454.4619 2285.77888
454.6738 2423.01327
454.8856 2486.43886
455.0975 2335.66740
455.3093 2341.25835
455.5211 2421.29297
455.7329 2386.25223
455.9446 2419.77748
456.1564 2419.18357
456.3681 2479.63960
456.5798 2568.80816
456.7916 2491.72262
457.0033 2488.77354
457.2149 2450.53797
457.4266 2480.62263
457.6382 2537.67904
457.8499 2512.28423
458.0615 2635.49002
458.2731 2532.86631
458.4847 2629.24372
458.6963 2659.14406
458.9078 2673.39793
459.1194 2824.21035
459.3309 2856.81401
459.5424 2680.34054
459.7539 2582.22236
459.9654 2638.04999
460.1769 2710.85528
460.3883 2695.00400
460.5998 2557.46242
460.8112 2533.11207
461.0226 2605.40536
461.2340 2717.40877
461.4454 2658.36584
461.6567 2607.53525
461.8681 2603.02972
462.0794 2560.67773
462.2907 2669.69110
462.5020 2755.39860
462.7133 2860.33651
462.9246 2929.76265
463.1359 2768.28032
463.3471 2514.78275
463.5583 2586.03158
463.7696 2936.27520
463.9808 2798.87697
464.1919 2672.18962
464.4031 2684.14976
464.6143 2829.41219
464.8254 2670.51029
465.0365 2644.91068
465.2476 2751.22074
465.4587 2826.36071
465.6698 2637.82471
465.8809 2602.21053
466.0919 2630.20627
466.3030 2809.95648
466.5140 2772.49913
466.7250 2650.78835
466.9360 2718.69900
467.1469 2657.46473
467.3579 2554.51334
467.5688 2550.04877
467.7798 2658.98023
467.9907 2835.31034
468.2016 2658.85735
468.4125 2646.89721
468.6233 2537.08513
468.8342 2556.52035
469.0450 2824.55850
469.2559 2815.34264
469.4667 2799.63472
469.6775 2560.16573
469.8882 2615.54281
470.0990 2656.62506
470.3098 2818.49651
470.5205 2688.36858
470.7312 2823.04300
470.9419 2942.93109
471.1526 2758.88014
471.3633 2639.74980
471.5739 2691.13334
471.7846 2651.40274
471.9952 2496.57630
472.2058 2570.24174
472.4164 2549.47534
472.6270 2595.92327
472.8376 2646.13946
473.0481 2785.23750
473.2587 2831.39872
473.4692 2757.71280
473.6797 2694.96304
473.8902 2612.57325
474.1007 2537.72000
474.3111 2517.36319
474.5216 2467.55659
474.7320 2589.16497
474.9424 2737.00784
475.1528 2805.18472
475.3632 2617.52934
475.5736 2611.44687
475.7840 2561.76315
475.9943 2583.53306
476.2046 2627.40055
476.4149 2656.82986
476.6252 2746.98144
476.8355 2885.48557
477.0458 2902.15604
477.2561 2939.61338
477.4663 2812.78268
477.6765 2751.95801
477.8867 2699.98056
478.0969 2722.34438
478.3071 2738.74861
478.5173 2701.31174
478.7274 2768.81279
478.9375 2934.73922
479.1477 2922.98388
479.3578 2915.52927
479.5679 3000.68381
479.7779 2867.34057
479.9880 2807.04837
480.1980 2892.87874
480.4081 2959.02813
480.6181 2878.44056
480.8281 2777.70098
481.0381 2907.52171
481.2480 2957.92222
481.4580 2882.45458
481.6679 2871.37507
481.8778 2817.84116
482.0877 2903.40530
482.2976 2919.80953
482.5075 2972.74952
482.7174 2950.73385
482.9272 2954.64547
483.1371 2889.33575
483.3469 2918.99034
483.5567 3009.01905
483.7665 3026.18102
483.9762 3024.29689
484.1860 2988.51888
484.3957 3029.47825
484.6055 2975.49380
484.8152 3017.02660
485.0249 3063.10590
485.2346 3041.17215
485.4442 3054.01292
485.6539 3118.99497
485.8635 3116.59884
486.0732 3053.11181
486.2828 3091.94130
486.4924 3099.15015
486.7019 3079.69445
486.9115 3106.58428
487.1210 3146.76542
487.3306 3168.18718
487.5401 3212.27994
487.7496 3217.95282
487.9591 3285.33099
488.1686 3282.52527
488.3780 3236.95797
488.5875 3257.64245
488.7969 3275.39834
489.0063 3266.30536
489.2157 3309.66086
489.4251 3309.47654
489.6345 3317.01307
489.8438 3314.90366
490.0531 3301.38706
490.2625 3345.00880
490.4718 3315.68189
490.6811 3373.51652
490.8903 3416.40099
491.0996 3427.27570
491.3089 3423.20025
491.5181 3468.64467
491.7273 3474.68618
491.9365 3458.48675
492.1457 3531.06676
492.3549 3514.88781
492.5640 3530.18613
492.7732 3570.36728
492.9823 3555.04847
493.1914 3649.86943
493.4005 3638.38032
493.6096 3612.82167
493.8187 3613.55894
494.0277 3689.08803
494.2368 3682.35021
494.4458 3717.26808
494.6548 3766.64460
494.8638 3789.15178
495.0728 3735.16732
495.2817 3769.65512
495.4907 3766.03021
495.6996 3832.42536
495.9085 3833.42887
496.1174 3886.43030
496.3263 3865.72533
496.5352 3930.89170
496.7440 3943.44575
496.9529 3959.37894
497.1617 3997.92172
497.3705 3972.42450
497.5793 4047.76927
497.7881 4017.27502
497.9969 4084.42792
498.2056 4109.94561
498.4144 4143.49133
498.6231 4153.44446
498.8318 4197.90586
499.0405 4218.85658
499.2492 4169.70533
499.4578 4246.74992
499.6665 4257.95231
499.8751 4325.39192
500.0837 4352.75278
500.2923 4370.36531
500.5009 4355.94761
500.7095 4422.64995
500.9180 4418.75881
501.1266 4490.39676
501.3351 4501.00524
501.5436 4553.14652
501.7521 4532.44156
501.9606 4591.93505
502.1691 4595.86715
502.3775 4634.06177
502.5860 4672.19495
502.7944 4690.17611
503.0028 4756.98085
503.2112 4785.20186
503.4196 4775.82217
503.6279 4876.95086
503.8363 4818.60423
504.0446 4959.77072
504.2529 4946.92995
504.4612 5008.51238
504.6695 5016.92953
504.8778 5042.52914
505.0860 5066.59277
505.2943 5098.84828
505.5025 5183.59322
505.7107 5183.67514
505.9189 5251.05331
506.1271 5290.90679
506.3353 5293.54867
506.5434 5300.49128
506.7516 5395.41463
506.9597 5390.90910
507.1678 5432.23711
507.3759 5501.21270
507.5840 5490.97285
507.7920 5547.16912
508.0001 5565.08884
508.2081 5695.81069
508.4161 5655.36330
508.6241 5717.31436
508.8321 5710.08503
509.0401 5780.98571
509.2480 5845.74248
509.4560 5825.20135
509.6639 5909.45479
509.8718 5924.42544
510.0797 5971.36488
510.2876 5972.47079
510.4955 6149.16953
510.7033 6172.59829
510.9112 6251.62941
511.1190 6250.21631
511.3268 6236.51540
511.5346 6328.81735
511.7424 6348.43689
511.9501 6431.76874
512.1579 6475.94342
512.3656 6533.71662
512.5733 6530.13268
512.7810 6646.64162
512.9887 6730.26018
513.1964 6769.72454
513.4040 6773.47232
513.6117 6840.09275
513.8193 6887.40083
514.0269 6948.38933
514.2345 7019.33097
514.4421 7022.95588
514.6497 7068.72798
514.8572 7163.93805
515.0647 7193.69503
515.2723 7285.11636
515.4798 7312.64106
515.6873 7428.98616
515.8947 7383.50078
516.1022 7448.95386
516.3097 7488.29534
516.5171 7620.49172
516.7245 7631.75555
516.9319 7702.24663
517.1393 7787.27829
517.3467 7868.48025
517.5540 7894.18226
517.7614 7974.17592
517.9687 7938.56175
518.1760 8004.05579
518.3833 8080.01495
518.5906 8105.38928
518.7978 8288.62104
519.0051 8246.00281
519.2123 8407.07556
519.4196 8332.16086
519.6268 8451.78271
519.8340 8534.21346
520.0411 8633.19179
520.2483 8703.88767
520.4554 8713.22640
520.6626 8825.68037
520.8697 8868.52388
521.0768 9033.16008
521.2839 9039.05823
521.4909 9119.54340
521.6980 9312.78974
521.9050 9344.84045
522.1121 9425.57138
522.3191 9468.31248
522.5261 9552.62736
522.7331 9639.01068
522.9400 9818.08507
523.1470 9821.91477
523.3539 9879.97468
523.5608 9942.62205
523.7677 9996.74986
523.9746 10077.60367
524.1815 10152.25213
524.3884 10269.15018
524.5952 10229.46055
524.8020 10460.73766
525.0089 10384.08219
525.2157 10521.31657
525.4225 10610.58753
525.6292 10653.04192
525.8360 10743.29591
526.0427 10862.42625
526.2494 10961.97801
526.4562 11081.45651
526.6629 11067.26408
526.8695 11134.84705
527.0762 11307.18362
527.2829 11297.92680
527.4895 11570.88008
527.6961 11644.99607
527.9027 11745.36702
528.1093 11743.56480
528.3159 11808.11678
528.5224 11856.20309
528.7290 12142.93919
528.9355 12082.48315
529.1420 12342.82094
529.3485 12258.48559
529.5550 12462.85239
529.7615 12470.02028
529.9680 12664.33155
530.1744 12708.05569
530.3808 12851.35206
530.5872 12786.80009
530.7936 12955.38887
531.0000 13043.77920
531.2064 13119.39021
531.4127 13220.98994
531.6191 13358.59296
531.8254 13384.21305
532.0317 13536.37713
532.2380 13545.57251
532.4443 13780.63836
532.6505 13608.64995
532.8568 13869.17205
533.0630 14047.42725
533.2692 14052.19902
533.4754 14189.90444
533.6816 14423.18856
533.8878 14398.40813
534.0939 14625.38451
534.3001 14641.50203
534.5062 14724.81339
534.7123 14796.69710
534.9184 14818.85612
535.1245 14847.97823
535.3306 14999.13881
535.5366 15161.66561
535.7426 15301.56235
535.9487 15548.09683
536.1547 15380.69587
536.3607 15590.34643
536.5666 15591.10417
536.7726 15695.10003
536.9785 15820.96819
537.1845 16042.98848
537.3904 16009.15604
537.5963 16223.96748
537.8022 16315.10209
538.0080 16517.70764
538.2139 16593.99447
538.4197 16738.47867
538.6256 16716.64732
538.8314 16832.58283
539.0372 16918.82280
539.2430 17174.94177
539.4487 16840.20127
539.6545 17335.21580
539.8602 17262.39003
540.0659 17405.91168
540.2716 17731.33392
540.4773 17687.09779
540.6830 18018.11098
540.8887 17973.05567
541.0943 17908.62657
541.2999 17988.12872
541.5056 18077.85023
541.7112 18231.81652
541.9167 18230.56726
542.1223 18482.20118
542.3279 18520.04764
542.5334 18616.03594
542.7389 18917.39454
542.9444 19012.05165
543.1499 19139.12812
543.3554 19028.80404
543.5609 19317.60859
543.7663 19449.29298
543.9718 19276.34202
544.1772 19585.17571
544.3826 19598.71278
544.5880 20004.62019
544.7934 19995.52721
544.9987 20073.04283
545.2041 20403.48258
545.4094 20235.75394
545.6147 20431.84695
545.8200 20710.47310
546.0253 20748.23764
546.2306 20927.63970
546.4358 20817.00843
546.6411 21067.33165
546.8463 21058.27963
547.0515 21401.70351
547.2567 21366.78564
547.4619 21543.54583
547.6670 21698.65898
547.8722 21790.79709
548.0773 22168.31965
548.2824 22048.04245
548.4876 22029.18066
548.6926 22367.66893
548.8977 22539.67783
549.1028 22738.53559
549.3078 22748.14057
549.5129 22814.35140
549.7179 22866.57460
549.9229 23057.01521
550.1279 23005.32448
550.3328 23164.26734
550.5378 22983.55457
550.7427 23285.50709
550.9476 23374.08173
551.1526 23059.22702
551.3575 23534.21241
551.5623 23545.18952
551.7672 23522.96906
551.9720 23737.20707
552.1769 23729.85487
552.3817 24105.41138
552.5865 23823.99999
552.7913 23983.18860
552.9961 23977.67956
553.2008 24100.25049
553.4056 24461.51218
553.6103 24349.67261
553.8150 24641.97919
554.0197 24732.29461
554.2244 24619.57441
554.4291 24519.87929
554.6337 24860.21074
554.8384 24869.20132
555.0430 24889.25093
555.2476 24782.08073
555.4522 24769.26045
555.6568 24969.61323
555.8613 25101.35906
556.0659 25252.88827
556.2704 25101.19522
556.4750 25419.83868
556.6795 25464.11576
556.8839 25258.41778
557.0884 25538.92806
557.2929 25550.97012
557.4973 25485.82423
557.7018 25488.38419
557.9062 25566.69852
558.1106 25630.53370
558.3150 25572.45331
558.5193 25792.15940
558.7237 25791.09445
558.9280 25704.79305
559.1323 25653.02040
559.3367 25649.17022
559.5410 25779.05240
559.7452 25377.05661
559.9495 25914.97608
560.1537 25823.30900
560.3580 25829.53483
560.5622 26029.74425
560.7664 26163.68141
560.9706 26103.22537
561.1748 26337.10340
561.3789 26411.77234
561.5831 26347.40468
561.7872 26349.14546
561.9913 26493.42486
562.1954 26317.81154
562.3995 26518.98351
562.6036 26513.55639
562.8076 26256.78207
563.0117 26618.76054
563.2157 26636.74171
563.4197 26732.75048
563.6237 26727.63056
563.8277 26496.59921
564.0316 26302.30841
564.2356 26620.80851
564.4395 26724.92724
564.6434 26704.16084
564.8473 27041.99377
565.0512 26952.96856
565.2551 26971.83036
565.4590 27080.45462
565.6628 27165.01525
565.8666 27303.21218
566.0705 27224.28346
566.2743 27126.39056
566.4780 27133.74277
566.6818 27143.02006
566.8856 27412.73755
567.0893 27211.40174
567.2930 27280.23397
567.4967 27180.00638
567.7004 27395.55509
567.9041 27522.38580
568.1078 27381.42411
568.3114 27431.21023
568.5151 27555.80865
568.7187 27041.93233
568.9223 27489.10630
569.1259 27492.15778
569.3295 27818.80879
569.5330 27797.67375
569.7366 27670.76113
569.9401 27835.58166
570.1436 27830.70749
570.3471 28165.75518
570.5506 28118.24230
570.7541 27971.17767
570.9575 28154.63471
571.1609 27928.21128
571.3644 28217.22063
571.5678 28275.32151
571.7712 28480.89661
571.9746 28438.42174
572.1779 28232.45752
572.3813 28096.98439
572.5846 28520.23809
572.7879 28404.93745
572.9912 28782.35761
573.1945 28729.45858
573.3978 28518.41540
573.6010 28598.98249
573.8043 28900.81212
574.0075 28431.52008
574.2107 28617.14797
574.4139 28431.62248
574.6171 28595.60334
574.8203 28211.85495
575.0234 28519.35746
575.2266 28189.81881
575.4297 28316.54712
575.6328 28405.83855
575.8359 28479.72927
576.0390 27811.84570
576.2420 28035.44293
576.4451 27743.30018
576.6481 28032.92392
576.8512 28398.85498
577.0542 27770.29241
577.2571 28065.97814
577.4601 28051.31468
577.6631 27769.59610
577.8660 27767.89629
578.0689 27351.68760
578.2719 27492.64929
578.4748 27538.74907
578.6776 27331.10551
578.8805 27327.64445
579.0834 27075.58045
579.2862 27282.60961
579.4890 27398.21745
579.6918 27578.95069
579.8946 27084.67343
580.0974 27220.90432
580.3002 27037.81591
580.5029 26851.10260
580.7057 27113.16068
580.9084 26701.70328
581.1111 27031.99968
581.3138 26798.71556
581.5164 26646.57196
581.7191 26494.65364
581.9217 26516.01395
582.1244 26332.14732
582.3270 26237.65404
582.5296 26380.41794
582.7322 26518.86063
582.9347 26386.93048
583.1373 26087.16930
583.3398 26161.75632
583.5424 26032.01750
583.7449 25979.81477
583.9474 25894.53735
584.1498 25725.25226
584.3523 25980.57252
584.5548 25692.79195
584.7572 25723.40909
584.9596 25803.25939
585.1620 26060.89386
585.3644 25577.90091
585.5668 25552.64945
585.7691 25686.05414
585.9715 25516.89192
586.1738 25713.16924
586.3761 25488.28179
586.5784 25733.01406
586.7807 25659.51246
586.9830 25626.06913
587.1852 25502.08510
587.3875 25394.91490
587.5897 25630.45178
587.7919 25436.03811
587.9941 25290.69377
588.1963 25300.21682
588.3984 25193.45621
588.6006 24957.79645
588.8027 25394.01379
589.0048 25242.07499
589.2069 25172.62837
589.4090 25384.24498
589.6111 25480.31520
589.8131 25496.06408
590.0152 25659.53294
590.2172 25320.98323
590.4192 25700.67663
590.6212 25355.49150
590.8232 25206.74753
591.0252 25529.30261
591.2271 25541.28322
591.4291 25540.81219
591.6310 25400.46489
591.8329 25361.67637
592.0348 25541.36514
592.2367 25456.53828
592.4385 25783.16881
592.6404 25947.43639
592.8422 26074.38997
593.0440 26208.79816
593.2458 26350.14896
593.4476 26314.61670
593.6494 26438.12970
593.8512 26597.99414
594.0529 26571.61630
594.2546 26617.75704
594.4563 26554.82296
594.6580 26438.12970
594.8597 26498.03279
595.0614 26472.24886
595.2630 26760.68478
595.4647 26776.35174
595.6663 26718.02559
595.8679 26863.43137
596.0695 27149.51213
596.2711 26958.98959
596.4727 27061.53139
596.6742 27222.70653
596.8757 27428.87554
597.0773 27459.30836
597.2788 27312.81715
597.4802 27502.43858
597.6817 27631.35821
597.8832 27495.86460
598.0846 27657.30598
598.2860 27572.37671
598.4875 27426.27462
598.6889 27880.47313
598.8902 27913.73214
599.0916 28074.12906
599.2930 27917.19321
599.4943 28175.38063
599.6956 28249.74238
599.8969 28100.99841
600.0982 28023.62615
600.2995 27847.93091
600.5008 28346.77514
600.7020 28232.27320
600.9032 28445.18003
601.1045 28521.24159
601.3057 28409.01291
601.5068 28722.10637
601.7080 28899.37854
601.9092 28546.18585
602.1103 29045.35776
602.3115 28986.29434
602.5126 28988.26039
602.7137 28824.97584
602.9147 29015.74413
603.1158 29229.38823
603.3169 29396.58440
603.5179 29495.46033
603.7189 29303.99573
603.9199 29522.20680
604.1209 29328.16176
604.3219 29399.45155
604.5229 29656.77883
604.7238 29666.97771
604.9247 29720.02010
605.1257 29729.25644
605.3266 29914.00370
605.5275 29740.21307
605.7283 29886.33564
605.9292 30144.33875
606.1300 29626.40745
606.3309 29835.09547
606.5317 30155.84833
606.7325 30457.14549
606.9332 30379.69132
607.1340 30404.90181
607.3348 30371.17177
607.5355 30282.53568
607.7362 30675.21321
607.9369 30247.78165
608.1376 30576.03008
608.3383 30531.03621
608.5390 30730.83604
608.7396 30665.75159
608.9402 31012.75942
609.1409 31042.49592
609.3415 30815.84722
609.5421 30789.12123
609.7426 30917.30359
609.9432 30874.05049
610.1437 30588.33837
610.3443 31301.97356
610.5448 31075.24294
610.7453 31236.29520
610.9457 31114.70730
611.1462 31175.55245
611.3467 31079.35936
611.5471 31413.93601
611.7475 31097.99588
611.9479 31614.30928
612.1483 31157.18217
612.3487 31686.15202
612.5491 31260.85035
612.7494 31917.22433
612.9497 31469.04685
613.1501 31697.35441
613.3504 31682.77287
613.5506 32272.13732
613.7509 31910.07692
613.9512 31571.87536
614.1514 31670.01403
614.3516 32140.51437
614.5519 31891.89096
614.7521 32254.42239
614.9522 31975.34569
615.1524 31855.10944
615.3526 32214.54844
615.5527 32522.52198
615.7528 32114.01365
615.9529 32170.76287
616.1530 32417.58406
616.3531 32688.10025
616.5532 32796.04868
616.7532 32403.33020
616.9532 32413.32428
617.1533 32190.89440
617.3533 32479.43272
617.5532 32285.46960
617.7532 32414.45067
617.9532 32164.04553
618.1531 32854.29292
618.3530 32200.88849
618.5530 32466.16188
618.7528 32576.91603
618.9527 32656.86873
619.1526 32418.68996
619.3524 32362.51418
619.5523 32464.48254
619.7521 32519.85962
619.9519 32633.37853
620.1517 32668.86983
620.3515 32818.14627
620.5512 32927.58972
620.7510 32712.96259
620.9507 32508.92347
621.1504 32414.30731
621.3501 32619.57522
621.5498 32909.77239
621.7495 32774.17638
621.9492 32857.99974
622.1488 32340.45756
622.3484 32395.22024
622.5480 32325.83506
622.7476 33030.15199
622.9472 32464.89214
623.1468 32396.40806
623.3463 33376.03343
623.5459 33160.23897
623.7454 32841.75935
623.9449 32875.61227
624.1444 32923.08419
624.3439 33080.55250
624.5433 32769.05646
624.7428 32855.35786
624.9422 32608.00419
625.1416 32596.94516
625.3410 32458.11336
625.5404 32737.23102
625.7398 32520.94504
625.9391 32691.90947
626.1385 32329.00941
626.3378 32398.10788
626.5371 32917.41131
626.7364 32261.87700
626.9357 32432.65711
627.1350 32441.48385
627.3342 32379.69664
627.5335 32263.16722
627.7327 32346.31475
627.9319 32322.98838
628.1311 33018.21233
628.3303 32368.84240
628.5294 32425.67354
628.7286 32548.73598
628.9277 32717.71388
629.1268 32508.78011
629.3259 32712.12292
629.5250 32748.88396
629.7241 32621.17263
629.9231 31959.59681
630.1222 32650.52002
630.3212 32533.19190
630.5202 32181.43278
630.7192 32377.81251
630.9182 31994.57611
631.1171 32077.19117
631.3161 31945.65014
631.5150 31646.11423
631.7140 31938.15457
631.9129 32054.78640
632.1118 32031.78771
632.3106 32034.24527
632.5095 32009.54677
632.7083 31659.22123
632.9072 31790.06595
633.1060 31859.81977
633.3048 31414.09985
633.5036 31487.88817
633.7023 31590.67572
633.9011 31797.07001
634.0998 31979.87170
634.2986 31512.89386
634.4973 31689.61309
634.6960 31517.46083
634.8947 31381.76243
635.0933 31303.77578
635.2920 31280.06030
635.4906 30956.91131
635.6892 31146.20506
635.8878 31192.73491
636.0864 31277.70513
636.2850 30861.51692
636.4836 30867.76323
636.6821 30630.38317
636.8806 30788.52732
637.0792 30927.27720
637.2777 30815.51955
637.4761 30534.41535
637.6746 30416.82099
637.8731 30846.21860
638.0715 30394.86676
638.2699 30566.65038
638.4683 30454.40122
638.6667 30215.71046
638.8651 30303.91647
639.0635 30302.93345
639.2618 30154.72195
639.4602 30087.48713
639.6585 29814.63626
639.8568 30063.34158
640.0551 29832.31023
640.2534 29584.23977
640.4516 29742.93687
640.6499 29648.21832
640.8481 29895.75630
641.0463 29753.58631
641.2445 29856.64010
641.4427 29471.27382
641.6409 29471.45813
641.8390 29339.40511
642.0372 29457.04043
642.2353 29271.84262
642.4334 29064.46530
642.6315 29163.79179
642.8296 28982.11648
643.0277 28645.63522
643.2257 29116.95474
643.4237 28798.67992
643.6218 28466.23315
643.8198 28518.86595
644.0178 28466.31507
644.2157 28181.54502
644.4137 28158.42345
644.6116 28759.72755
644.8096 28759.72755
645.0075 28001.07801
