# Averages = 100
# wavelength [µm]	intensity
446.8250 14.33578
447.0374 36746.70328
447.2498 1227.06096
447.4621 1219.48347
447.6745 1225.54546
447.8868 1244.32533
448.0992 1241.86777
448.3115 1234.86372
448.5238 1246.31186
448.7360 1236.68641
448.9483 1254.97477
449.1606 1241.60153
449.3728 1268.61424
449.5850 1229.64140
449.7972 1245.22644
450.0094 1235.15043
450.2216 1255.09765
450.4337 1256.01923
450.6459 1731.82381
450.8580 2096.93568
451.0701 2116.94434
451.2822 2148.38066
451.4943 2127.49138
451.7064 2117.57921
451.9184 2114.26150
452.1305 2208.11991
452.3425 2307.38495
452.5545 2201.54593
452.7665 2224.29886
452.9785 2313.69270
453.1905 2347.44322
453.4024 2313.22166
453.6143 2417.58615
453.8263 2407.46918
454.0382 2593.05611
454.2501 2393.29724
454.4619 2378.90002
454.6738 2498.52187
454.8856 2628.28118
455.0975 2442.26417
455.3093 2435.38300
455.5211 2504.89106
455.7329 2474.60160
455.9446 2527.54159
456.1564 2545.44084
456.3681 2623.95996
456.5798 2743.49990
456.7916 2661.41731
457.0033 2633.13486
457.2149 2598.68803
457.4266 2641.06050
457.6382 2690.49847
457.8499 2656.33835
458.0615 2783.18953
458.2731 2670.08022
458.4847 2798.61074
458.6963 2891.64996
458.9078 2912.39588
459.1194 3077.72840
459.3309 3099.41639
459.5424 2928.14476
459.7539 2839.16052
459.9654 2859.72212
460.1769 2901.21397
460.3883 2880.87764
460.5998 2752.77720
460.8112 2745.54787
461.0226 2802.64523
461.2340 2888.10697
461.4454 2856.50681
461.6567 2829.57602
461.8681 2849.15460
462.0794 2790.25502
462.2907 2930.60232
462.5020 3178.26318
462.7133 3269.17252
462.9246 3047.70517
463.1359 2908.97577
463.3471 2774.87478
463.5583 2839.91827
463.7696 3244.33065
463.9808 3062.98302
464.1919 3004.69783
464.4031 2993.84360
464.6143 3021.22494
464.8254 2938.22077
465.0365 2894.68095
465.2476 3167.34751
465.4587 3326.18797
465.6698 2905.24847
465.8809 2978.48383
466.0919 2962.55063
466.3030 3021.16350
466.5140 3057.47399
466.7250 2972.19657
466.9360 3112.83058
467.1469 3046.94743
467.3579 2845.52970
467.5688 2835.49465
467.7798 3073.44814
467.9907 3190.03900
468.2016 3074.14445
468.4125 3039.80002
468.6233 2890.05254
468.8342 2925.85103
469.0450 3101.38244
469.2559 3194.72885
469.4667 3150.92280
469.6775 2896.11453
469.8882 3060.56642
470.0990 3018.33730
470.3098 3310.97156
470.5205 3128.23131
470.7312 3215.12662
470.9419 3424.40855
471.1526 3315.19037
471.3633 3043.50684
471.5739 3061.44705
471.7846 3061.11937
471.9952 2975.90339
472.2058 3087.49721
472.4164 3066.71032
472.6270 3056.77768
472.8376 3175.98994
473.0481 3377.28479
473.2587 3438.19138
473.4692 3350.55879
473.6797 3254.32474
473.8902 3000.76573
474.1007 2986.55283
474.3111 3009.36720
474.5216 2942.78774
474.7320 3048.83156
474.9424 3220.30798
475.1528 3295.12028
475.3632 3150.82040
475.5736 3097.75753
475.7840 3118.13482
475.9943 3145.70048
476.2046 3191.06299
476.4149 3239.08785
476.6252 3265.87529
476.8355 3375.21634
477.0458 3445.97366
477.2561 3431.69932
477.4663 3282.07472
477.6765 3294.28061
477.8867 3315.51805
478.0969 3294.64925
478.3071 3288.71014
478.5173 3398.11263
478.7274 3356.27263
478.9375 3418.75615
479.1477 3383.59253
479.3578 3515.97323
479.5679 3474.17419
479.7779 3504.25885
479.9880 3505.46715
480.1980 3562.66692
480.4081 3553.02098
480.6181 3432.41610
480.8281 3544.64479
481.0381 3488.71477
481.2480 3484.61883
481.4580 3559.14441
481.6679 3531.68115
481.8778 3474.80906
482.0877 3490.90609
482.2976 3393.52518
482.5075 3493.89613
482.7174 3561.13094
482.9272 3613.47702
483.1371 3498.38118
483.3469 3547.10235
483.5567 3664.77864
483.7665 3558.18187
483.9762 3591.46136
484.1860 3753.98816
484.3957 3749.50311
484.6055 3598.81357
484.8152 3668.52642
485.0249 3790.33960
485.2346 3774.57024
485.4442 3770.26951
485.6539 3811.47464
485.8635 3795.62336
486.0732 3675.22328
486.2828 3702.97326
486.4924 3685.38120
486.7019 3814.03460
486.9115 3773.05475
487.1210 3773.13667
487.3306 3909.08083
487.5401 3870.68142
487.7496 3935.78634
487.9591 3974.61583
488.1686 3918.27621
488.3780 3865.86869
488.5875 3982.37763
488.7969 4070.19453
489.0063 4046.11042
489.2157 4085.28806
489.4251 4005.51968
489.6345 3995.32080
489.8438 4095.20023
490.0531 3934.68044
490.2625 4006.52318
490.4718 4105.29672
490.6811 4160.63283
490.8903 4177.13946
491.0996 4211.13574
491.3089 4226.39311
491.5181 4249.51468
491.7273 4256.62113
491.9365 4236.98111
492.1457 4321.00927
492.3549 4338.49892
492.5640 4260.02076
492.7732 4320.74303
492.9823 4387.50681
493.1914 4506.35044
493.4005 4470.44955
493.6096 4418.71785
493.8187 4403.66528
494.0277 4505.75653
494.2368 4490.84731
494.4458 4529.47200
494.6548 4586.56937
494.8638 4642.08981
495.0728 4632.93539
495.2817 4627.18059
495.4907 4659.98905
495.6996 4689.27501
495.9085 4691.60969
496.1174 4770.64080
496.3263 4770.41553
496.5352 4786.30777
496.7440 4889.23867
496.9529 4918.60655
497.1617 4847.15292
497.3705 4881.43591
497.5793 5022.31568
497.7881 4909.73884
497.9969 5003.49485
498.2056 5053.38337
498.4144 5074.17025
498.6231 5148.94159
498.8318 5139.99197
499.0405 5163.50265
499.2492 5147.95857
499.4578 5199.23970
499.6665 5198.15428
499.8751 5338.33774
500.0837 5323.63333
500.2923 5337.51855
500.5009 5369.09823
500.7095 5480.56917
500.9180 5424.90538
501.1266 5509.19978
501.3351 5524.14995
501.5436 5598.90081
501.7521 5609.38641
501.9606 5675.98635
502.1691 5723.90882
502.3775 5678.19816
502.5860 5745.69921
502.7944 5773.94070
503.0028 5835.64599
503.2112 5859.97586
503.4196 5897.06458
503.6279 5958.42172
503.8363 5898.72343
504.0446 6069.56498
504.2529 6021.13052
504.4612 6089.94227
504.6695 6191.99256
504.8778 6178.37356
505.0860 6196.10897
505.2943 6203.44070
505.5025 6286.11720
505.7107 6307.25224
505.9189 6396.93279
506.1271 6429.57741
506.3353 6435.72132
506.5434 6418.29310
506.7516 6527.87991
506.9597 6573.42674
507.1678 6626.55105
507.3759 6604.37154
507.5840 6686.18790
507.7920 6736.85464
508.0001 6743.85870
508.2081 6855.80067
508.4161 6825.18353
508.6241 7032.29461
508.8321 6994.61199
509.0401 6941.65152
509.2480 7082.30601
509.4560 7083.96487
509.6639 7170.90114
509.8718 7189.39430
510.0797 7309.50766
510.2876 7308.79087
510.4955 7400.17124
510.7033 7437.42379
510.9112 7473.77524
511.1190 7610.39523
511.3268 7558.11059
511.5346 7648.34409
511.7424 7679.08410
511.9501 7788.34324
512.1579 7826.18970
512.3656 7848.14393
512.5733 7836.16331
512.7810 7970.34622
512.9887 8048.25095
513.1964 8080.28118
513.4040 8107.47821
513.6117 8182.02427
513.8193 8247.84599
514.0269 8277.62345
514.2345 8418.99473
514.4421 8370.66267
514.6497 8364.17061
514.8572 8533.18947
515.0647 8598.29440
515.2723 8657.70597
515.4798 8731.49429
515.6873 8796.90641
515.8947 8869.79362
516.1022 8831.72188
516.3097 8908.90982
516.5171 9033.85639
516.7245 9092.14158
516.9319 9168.59226
517.1393 9185.93855
517.3467 9185.99999
517.5540 9210.94425
517.7614 9446.09202
517.9687 9480.47742
518.1760 9513.75691
518.3833 9635.42673
518.5906 9646.21953
518.7978 9824.18801
519.0051 9786.97642
519.2123 9952.34990
519.4196 9779.25558
519.6268 9951.48975
519.8340 10019.91239
520.0411 10056.79630
520.2483 10295.58946
520.4554 10278.95995
520.6626 10536.49202
520.8697 10457.50187
521.0768 10667.99210
521.2839 10621.48273
521.4909 10634.61021
521.6980 10799.43073
521.9050 11003.10122
522.1121 10897.38508
522.3191 11141.29815
522.5261 11133.80259
522.7331 11178.34591
522.9400 11387.21824
523.1470 11397.64240
523.3539 11522.11794
523.5608 11506.86058
523.7677 11541.88084
523.9746 11687.86005
524.1815 11965.25742
524.3884 11845.36933
524.5952 11876.23222
524.8020 12137.75783
525.0089 12066.50900
525.2157 12197.64044
525.4225 12293.46489
525.6292 12332.74493
525.8360 12418.75962
526.0427 12491.07340
526.2494 12677.58191
526.4562 12637.87180
526.6629 12788.09031
526.8695 12782.86799
527.0762 13024.48734
527.2829 13105.79170
527.4895 13223.71374
527.6961 13329.51180
527.9027 13439.50821
528.1093 13491.81333
528.3159 13555.48468
528.5224 13484.72736
528.7290 13901.52996
528.9355 13727.45261
529.1420 14121.33844
529.3485 14017.95698
529.5550 14214.07047
529.7615 14160.08601
529.9680 14316.34603
530.1744 14340.92165
530.3808 14537.50617
530.5872 14497.44790
530.7936 14664.95127
531.0000 14688.70770
531.2064 14874.33559
531.4127 14968.91079
531.6191 15059.34909
531.8254 15202.58402
532.0317 15376.47705
532.2380 15313.01050
532.4443 15471.91239
532.6505 15323.43466
532.8568 15608.57335
533.0630 15925.74227
533.2692 15839.46135
533.4754 15978.19075
533.6816 16194.00570
533.8878 16077.61963
534.0939 16404.45496
534.3001 16438.00069
534.5062 16561.80040
534.7123 16456.57577
534.9184 16556.14801
535.1245 16726.12942
535.3306 16726.51853
535.5366 17113.60510
535.7426 17108.50566
535.9487 17156.36669
536.1547 17152.08644
536.3607 17459.52750
536.5666 17332.36913
536.7726 17489.22305
536.9785 17695.10535
537.1845 17899.22640
537.3904 17765.98555
537.5963 17816.54990
537.8022 18012.06947
538.0080 18207.19994
538.2139 18276.27792
538.4197 18414.63869
538.6256 18358.46291
538.8314 18485.51889
539.0372 18630.26932
539.2430 18969.55630
539.4487 18788.24963
539.6545 19117.15341
539.8602 19000.80831
540.0659 19192.21147
540.2716 19631.70556
540.4773 19659.08690
540.6830 19771.92998
540.8887 19918.60550
541.0943 19687.73798
541.2999 19816.39138
541.5056 19882.29502
541.7112 20070.81054
541.9167 19984.85729
542.1223 20025.96002
542.3279 20430.78201
542.5334 20518.94706
542.7389 20714.99911
542.9444 20809.34903
543.1499 20904.82533
543.3554 20830.32023
543.5609 21198.29925
543.7663 21229.20310
543.9718 21077.96061
544.1772 21228.95735
544.3826 21256.54349
544.5880 21890.86085
544.7934 21689.75032
544.9987 21754.71188
545.2041 22176.59345
545.4094 22088.81751
545.6147 22127.97467
545.8200 22393.92389
546.0253 22381.71800
546.2306 22712.17823
546.4358 22491.55056
546.6411 22848.26576
546.8463 22683.11756
547.0515 22996.14958
547.2567 23144.21772
547.4619 23179.99574
547.6670 23319.60577
547.8722 23470.33627
548.0773 23728.66704
548.2824 23704.31670
548.4876 23875.42448
548.6926 23929.51134
548.8977 24055.89149
549.1028 24212.72494
549.3078 24360.34253
549.5129 24380.02350
549.7179 24502.34868
549.9229 24672.20721
550.1279 24554.26469
550.3328 24940.49111
550.5378 24603.06778
550.7427 25008.23792
550.9476 25182.41766
551.1526 24615.84711
551.3575 25246.72388
551.5623 25327.96680
551.7672 25190.50714
551.9720 25289.56739
552.1769 25434.58405
552.3817 25620.29386
552.5865 25489.92017
552.7913 25709.70817
552.9961 25584.14721
553.2008 25801.47765
553.4056 26141.44047
553.6103 26007.03228
553.8150 26273.43205
554.0197 26350.92719
554.2244 26254.50882
554.4291 26355.30984
554.6337 26763.59289
554.8384 26544.25544
555.0430 26772.60396
555.2476 26555.90838
555.4522 26540.81485
555.6568 26870.55830
555.8613 27034.27292
556.0659 27194.23976
556.2704 26878.32010
556.4750 27210.21392
556.6795 27419.25009
556.8839 27092.84483
557.0884 27607.86801
557.2929 27532.66660
557.4973 27338.33484
557.7018 27464.59212
557.9062 27649.60561
558.1106 27656.30247
558.3150 27450.21538
558.5193 27871.62591
558.7237 27924.75022
558.9280 27686.07994
559.1323 27949.26440
559.3367 27805.74275
559.5410 28050.53646
559.7452 27784.56675
559.9495 28104.80763
560.1537 28097.76262
560.3580 28011.85033
560.5622 28254.26839
560.7664 28475.79717
560.9706 28449.03022
561.1748 28557.65448
561.3789 28582.98785
561.5831 28559.43621
561.7872 28500.98718
561.9913 28786.37163
562.1954 28742.50414
562.3995 28884.55125
562.6036 28859.03356
562.8076 28674.71637
563.0117 28963.84860
563.2157 28864.19444
563.4197 29069.11419
563.6237 29285.40017
563.8277 28947.64917
564.0316 28796.71387
564.2356 29196.23161
564.4395 29184.90635
564.6434 29376.22759
564.8473 29524.60292
565.0512 29509.26364
565.2551 29470.61847
565.4590 29577.31764
565.6628 29727.47471
565.8666 29987.87393
566.0705 29742.81399
566.2743 29761.30715
566.4780 29801.75453
566.6818 29731.50921
566.8856 30252.73773
567.0893 29837.49159
567.2930 29972.43225
567.4967 29739.04573
567.7004 29969.81085
567.9041 30120.76663
568.1078 30151.32232
568.3114 30368.87804
568.5151 30294.39342
568.7187 29968.72543
568.9223 30151.21992
569.1259 30313.82864
569.3295 30666.79605
569.5330 30637.87874
569.7366 30610.49739
569.9401 30736.44747
570.1436 30763.70594
570.3471 30869.95455
570.5506 30788.44540
570.7541 30801.73672
570.9575 30789.20315
571.1609 30514.42718
571.3644 31034.07877
571.5678 30987.52844
571.7712 31370.66243
571.9746 31245.94114
572.1779 31043.00791
572.3813 30901.84143
572.5846 31163.63327
572.7879 31062.40218
572.9912 31714.10679
573.1945 31492.45514
573.3978 31128.16245
573.6010 31406.11277
573.8043 31947.78003
574.0075 31174.95854
574.2107 31367.20137
574.4139 31293.82265
574.6171 31439.31035
574.8203 31224.80610
575.0234 31670.66938
575.2266 31148.86742
575.4297 31305.88518
575.6328 31436.07456
575.8359 31742.49164
576.0390 31104.91801
576.2420 31228.36957
576.4451 30982.20372
576.6481 31378.23992
576.8512 31831.53732
577.0542 31134.06060
577.2571 31568.74197
577.4601 31613.10097
577.6631 31451.25000
577.8660 31363.14639
578.0689 31239.51052
578.2719 31451.51624
578.4748 31222.84005
578.6776 31172.00947
578.8805 31294.15032
579.0834 30809.72379
579.2862 31244.40516
579.4890 31619.81831
579.6918 31410.96646
579.8946 31122.34622
580.0974 31552.56302
580.3002 31218.47788
580.5029 31075.22246
580.7057 31457.61919
580.9084 30983.98545
581.1111 31587.21465
581.3138 31336.29752
581.5164 31099.51137
581.7191 30948.10504
581.9217 31052.63337
582.1244 31089.23057
582.3270 31134.28588
582.5296 31052.87912
582.7322 31334.61818
582.9347 31216.45039
583.1373 30917.40599
583.3398 31207.84892
583.5424 30945.15597
583.7449 30863.83113
583.9474 30687.93109
584.1498 30622.99000
584.3523 31058.53152
584.5548 30656.35141
584.7572 30840.97580
584.9596 30996.49854
585.1620 31558.97316
585.3644 30733.86703
585.5668 30772.51220
585.7691 31176.06444
585.9715 30995.16736
586.1738 31205.47328
586.3761 31219.31754
586.5784 31423.68435
586.7807 31331.25952
586.9830 31255.97618
587.1852 31240.88265
587.3875 30934.26077
587.5897 31456.73856
587.7919 31208.31995
587.9941 30867.49699
588.1963 30972.53731
588.3984 31404.96591
588.6006 30828.74942
588.8027 31398.51481
589.0048 31045.05588
589.2069 31213.17364
589.4090 31204.55169
589.6111 31424.31922
589.8131 31328.14660
590.0152 31526.59478
590.2172 31409.88104
590.4192 31713.59480
590.6212 31487.33521
590.8232 31213.15316
591.0252 31627.82587
591.2271 31679.33228
591.4291 31661.18728
591.6310 31533.39403
591.8329 31507.42579
592.0348 31828.13769
592.2367 31852.46756
592.4385 32207.29863
592.6404 32288.11147
592.8422 32375.84646
593.0440 32496.22606
593.2458 32732.04966
593.4476 32833.56747
593.6494 32871.88497
593.8512 33066.44200
594.0529 33369.80761
594.2546 33255.65383
594.4563 33211.97066
594.6580 32944.60834
594.8597 32866.82648
595.0614 32970.43322
595.2630 33261.87966
595.4647 33215.94372
595.6663 32890.37813
595.8679 33245.29111
596.0695 33708.39828
596.2711 33505.48554
596.4727 33619.02493
596.6742 33886.55108
596.8757 34016.39230
597.0773 33929.04644
597.2788 33626.99152
597.4802 33979.20119
597.6817 34457.34045
597.8832 34112.54444
598.0846 34464.40595
598.2860 34413.75968
598.4875 34154.32300
598.6889 34696.35889
598.8902 34689.21148
599.0916 34789.13187
599.2930 34426.96908
599.4943 34913.93509
599.6956 34938.24448
599.8969 34710.65371
600.0982 34428.77129
600.2995 34586.69016
600.5008 35354.98564
600.7020 34722.40905
600.9032 35264.89549
601.1045 34998.37284
601.3057 34722.59337
601.5068 35397.68579
601.7080 35442.08575
601.9092 35237.80087
602.1103 35758.55836
602.3115 35673.87485
602.5126 35902.69440
602.7137 35825.48598
602.9147 35751.75910
603.1158 35966.83678
603.3169 36189.28715
603.5179 36054.22361
603.7189 35854.40330
603.9199 36093.33981
604.1209 36108.84293
604.3219 36089.73539
604.5229 36180.54232
604.7238 36374.60784
604.9247 36340.69348
605.1257 36539.89940
605.3266 36727.49333
605.5275 36367.03035
605.7283 36504.34666
605.9292 36667.03730
606.1300 36095.63354
606.3309 36351.67059
606.5317 36693.94761
606.7325 36863.49894
606.9332 36848.85596
607.1340 37108.84560
607.3348 37039.76761
607.5355 36448.23232
607.7362 37412.29312
607.9369 36739.08484
608.1376 37036.63422
608.3383 36750.34867
608.5390 37597.83909
608.7396 37173.66381
608.9402 37761.36940
609.1409 37781.72621
609.3415 37409.71268
609.5421 37315.28085
609.7426 37624.25789
609.9432 37211.44883
610.1437 37035.01632
610.3443 37877.03867
610.5448 37665.58590
610.7453 37925.69841
610.9457 37633.96526
611.1462 37856.08795
611.3467 37726.28769
611.5471 38096.31469
611.7475 37624.09405
611.9479 38391.36555
612.1483 37835.52635
612.3487 38394.47846
612.5491 38242.17102
612.7494 38831.86314
612.9497 38151.48697
613.1501 38584.93955
613.3504 38333.44899
613.5506 38953.86064
613.7509 38731.81987
613.9512 38522.61986
614.1514 38753.11875
614.3516 39132.27968
614.5519 38974.77040
614.7521 39072.76571
614.9522 38775.19585
615.1524 38802.39287
615.3526 39270.21038
615.5527 39884.21189
615.7528 39482.33898
615.9529 39487.68418
616.1530 39832.35732
616.3531 39859.82058
616.5532 39732.25260
616.7532 39300.76607
616.9532 39646.07408
617.1533 39447.56447
617.3533 39873.13238
617.5532 39556.12729
617.7532 39762.84926
617.9532 38950.82965
618.1531 39949.52161
618.3530 39380.53445
618.5530 39714.31240
618.7528 39867.66430
618.9527 39940.01903
619.1526 39514.38969
619.3524 39583.61103
619.5523 39819.82375
619.7521 39960.47824
619.9519 39978.07029
620.1517 39931.76572
620.3515 40323.93126
620.5512 40606.71478
620.7510 40384.57161
620.9507 40048.41802
621.1504 40102.15672
621.3501 40211.23154
621.5498 40454.30495
621.7495 40540.13532
621.9492 40141.94875
622.1488 39988.43302
622.3484 40060.48056
622.5480 39981.96143
622.7476 40740.71338
622.9472 40014.79037
623.1468 40241.23428
623.3463 41361.94422
623.5459 41013.81001
623.7454 40744.33828
623.9449 40786.75171
624.1444 40770.12221
624.3439 41175.25139
624.5433 40888.80200
624.7428 40713.65971
624.9422 40836.10776
625.1416 40939.67354
625.3410 40929.12650
625.5404 40791.85116
625.7398 40857.63191
625.9391 41054.15499
626.1385 40611.52751
626.3378 40698.89385
626.5371 41354.51009
626.7364 40762.83144
626.9357 41156.94255
627.1350 41138.01931
627.3342 40737.06799
627.5335 40549.96557
627.7327 40766.39490
627.9319 40826.54375
628.1311 41816.90048
628.3303 41027.40852
628.5294 41318.17912
628.7286 41457.17476
628.9277 41849.01263
629.1268 41510.19667
629.3259 42160.69299
629.5250 42079.45007
629.7241 42016.80270
629.9231 41242.17900
630.1222 42094.91223
630.3212 41943.34207
630.5202 41517.63080
630.7192 42055.95987
630.9182 41472.28877
631.1171 41736.04667
631.3161 41546.71196
631.5150 41384.75859
631.7140 41647.22626
631.9129 41816.92095
632.1118 42265.67187
632.3106 42033.47317
632.5095 41832.01448
632.7083 41767.64683
632.9072 41876.98788
633.1060 41957.86216
633.3048 42034.57907
633.5036 41489.69651
633.7023 41844.56853
633.9011 42329.09746
634.0998 42169.54021
634.2986 42278.20544
634.4973 42038.55213
634.6960 42155.94170
634.8947 42031.03609
635.0933 42362.19263
635.2920 42005.41600
635.4906 41680.62863
635.6892 42456.05104
635.8878 42520.25486
636.0864 42519.21040
636.2850 42185.47341
636.4836 42226.82190
636.6821 42274.15046
636.8806 42476.75601
637.0792 42411.52820
637.2777 42400.03910
637.4761 42440.54792
637.6746 42210.90918
637.8731 42563.93804
638.0715 42066.83458
638.2699 42787.06423
638.4683 42437.18925
638.6667 41714.03100
638.8651 42530.80190
639.0635 42726.23956
639.2618 42759.17090
639.4602 42682.90454
639.6585 42538.42035
639.8568 42659.33242
640.0551 42736.09029
640.2534 42648.70346
640.4516 42367.39448
640.6499 42605.88044
640.8481 43345.34051
641.0463 43137.43072
641.2445 43348.20767
641.4427 43189.16242
641.6409 42945.61797
641.8390 43180.84766
642.0372 43520.83095
642.2353 43325.88481
642.4334 42807.99447
642.6315 43063.41713
642.8296 43059.46455
643.0277 42872.36213
643.2257 43499.30680
643.4237 43559.66044
643.6218 43509.13705
643.8198 43218.16165
644.0178 43359.63533
644.2157 43300.12136
644.4137 43209.27347
644.6116 43876.82936
644.8096 44211.05786
