# Averages = 100
# wavelength [µm]	intensity
446.8250 14.33578
447.0374 36746.70328
447.2498 1233.83973
447.4621 1221.65432
447.6745 1230.95210
447.8868 1240.76187
448.0992 1239.45117
448.3115 1236.80929
448.5238 1246.29138
448.7360 1238.75486
448.9483 1250.01869
449.1606 1239.67644
449.3728 1263.82200
449.5850 1229.45708
449.7972 1238.46814
450.0094 1234.29029
450.2216 1257.08418
450.4337 1250.53068
450.6459 1756.35848
450.8580 2135.88805
451.0701 2179.10019
451.2822 2199.02692
451.4943 2184.30203
451.7064 2165.97271
451.9184 2162.34780
452.1305 2248.97688
452.3425 2360.61166
452.5545 2258.93001
452.7665 2273.26579
452.9785 2374.76312
453.1905 2416.70552
453.4024 2370.70815
453.6143 2490.39144
453.8263 2453.65088
454.0382 2674.60623
454.2501 2467.22891
454.4619 2437.34905
454.6738 2579.82623
454.8856 2715.66800
455.0975 2502.22870
455.3093 2495.24512
455.5211 2576.20133
455.7329 2536.12258
455.9446 2596.55814
456.1564 2605.30297
456.3681 2699.44809
456.5798 2817.98452
456.7916 2735.92241
457.0033 2710.73240
457.2149 2683.20770
457.4266 2731.49880
457.6382 2759.51501
457.8499 2741.00138
458.0615 2856.58873
458.2731 2745.73218
458.4847 2877.55993
458.6963 2970.08716
458.9078 2994.70374
459.1194 3178.44750
459.3309 3202.79785
459.5424 3032.07917
459.7539 2935.53793
459.9654 2939.16283
460.1769 2994.88806
460.3883 2973.77350
460.5998 2834.14299
460.8112 2812.61884
461.0226 2883.74480
461.2340 2976.21059
461.4454 2946.31024
461.6567 2919.21562
461.8681 2920.38296
462.0794 2879.71030
462.2907 3022.06461
462.5020 3279.71955
462.7133 3384.80083
462.9246 3132.04053
463.1359 2986.49139
463.3471 2853.90589
463.5583 2929.12778
463.7696 3335.71102
463.9808 3171.34105
464.1919 3092.88337
464.4031 3094.70606
464.6143 3111.99091
464.8254 3033.55371
465.0365 2968.14159
465.2476 3262.78285
465.4587 3436.94212
465.6698 3001.11389
465.8809 3077.07305
466.0919 3049.65075
466.3030 3117.33611
466.5140 3146.19199
466.7250 3072.13744
466.9360 3207.77441
467.1469 3134.51857
467.3579 2940.65785
467.5688 2924.76561
467.7798 3171.05433
467.9907 3294.36253
468.2016 3174.57684
468.4125 3126.42909
468.6233 2980.53180
468.8342 3014.56904
469.0450 3201.01612
469.2559 3299.15478
469.4667 3239.59985
469.6775 2984.11575
469.8882 3155.53073
470.0990 3128.49754
470.3098 3425.69877
470.5205 3228.35650
470.7312 3333.31490
470.9419 3539.52487
471.1526 3428.89360
471.3633 3133.65842
471.5739 3164.54179
471.7846 3146.00768
471.9952 3078.99814
472.2058 3197.32977
472.4164 3180.63883
472.6270 3145.00417
472.8376 3289.11973
473.0481 3479.78562
473.2587 3572.16949
473.4692 3471.98286
473.6797 3359.85657
473.8902 3093.62063
474.1007 3072.60848
474.3111 3109.61527
474.5216 3037.58821
474.7320 3150.86136
474.9424 3339.99127
475.1528 3383.06006
475.3632 3255.81976
475.5736 3216.45780
475.7840 3210.82589
475.9943 3260.40721
476.2046 3279.10516
476.4149 3344.31249
476.6252 3385.00563
476.8355 3480.95296
477.0458 3572.57909
477.2561 3555.60143
477.4663 3389.98219
477.6765 3407.36945
477.8867 3434.87367
478.0969 3413.65671
478.3071 3390.63754
478.5173 3521.74850
478.7274 3474.82954
478.9375 3537.66122
479.1477 3501.61697
479.3578 3650.77053
479.5679 3602.90950
479.7779 3631.80634
479.9880 3623.30727
480.1980 3683.14892
480.4081 3674.71129
480.6181 3548.63833
480.8281 3682.26829
481.0381 3606.06337
481.2480 3589.90490
481.4580 3686.89670
481.6679 3650.85245
481.8778 3604.89603
482.0877 3613.62038
482.2976 3517.52969
482.5075 3608.45950
482.7174 3702.17455
482.9272 3762.83538
483.1371 3633.07608
483.3469 3681.83822
483.5567 3807.76782
483.7665 3683.37420
483.9762 3755.05310
484.1860 3897.20261
484.3957 3889.70705
484.6055 3725.89003
484.8152 3814.89475
485.0249 3928.14742
485.2346 3921.71680
485.4442 3927.71735
485.6539 3956.04075
485.8635 3920.83617
486.0732 3813.72741
486.2828 3832.24104
486.4924 3839.28606
486.7019 3958.64167
486.9115 3914.99946
487.1210 3910.71921
487.3306 4051.57850
487.5401 4045.20931
487.7496 4086.35301
487.9591 4126.22696
488.1686 4075.15062
488.3780 4025.46690
488.5875 4119.83730
488.7969 4233.95011
489.0063 4215.04736
489.2157 4260.94234
489.4251 4177.11898
489.6345 4151.27362
489.8438 4276.65026
490.0531 4080.63917
490.2625 4173.61695
490.4718 4254.67556
490.6811 4324.81849
490.8903 4359.26532
491.0996 4371.75793
491.3089 4386.05275
491.5181 4435.20400
491.7273 4435.47024
491.9365 4417.91915
492.1457 4508.09121
492.3549 4530.84414
492.5640 4440.81544
492.7732 4506.06372
492.9823 4565.82345
493.1914 4689.70508
493.4005 4668.16045
493.6096 4628.63465
493.8187 4579.46292
494.0277 4691.11818
494.2368 4684.68756
494.4458 4714.46502
494.6548 4799.70148
494.8638 4841.02949
495.0728 4815.94187
495.2817 4829.90902
495.4907 4860.95623
495.6996 4891.55288
495.9085 4906.74881
496.1174 4978.05908
496.3263 4976.64598
496.5352 4987.04966
496.7440 5084.55345
496.9529 5122.35896
497.1617 5067.53483
497.3705 5102.06359
497.5793 5223.79485
497.7881 5117.38239
497.9969 5224.47068
498.2056 5286.95421
498.4144 5306.88094
498.6231 5375.40598
498.8318 5380.19822
499.0405 5399.67441
499.2492 5378.94896
499.4578 5442.74319
499.6665 5442.57935
499.8751 5579.81374
500.0837 5566.05139
500.2923 5602.09564
500.5009 5607.46132
500.7095 5738.85899
500.9180 5704.12544
501.1266 5776.93073
501.3351 5792.37241
501.5436 5865.89449
501.7521 5847.48325
501.9606 5928.00938
502.1691 5981.99384
502.3775 5943.38963
502.5860 6012.07850
502.7944 6039.09121
503.0028 6107.26809
503.2112 6114.88653
503.4196 6174.48242
503.6279 6240.30414
503.8363 6171.14423
504.0446 6348.10921
504.2529 6297.54487
504.4612 6385.73040
504.6695 6477.33604
504.8778 6484.27866
505.0860 6506.47864
505.2943 6522.39135
505.5025 6603.65475
505.7107 6625.26083
505.9189 6694.78936
506.1271 6753.15647
506.3353 6739.70132
506.5434 6729.54339
506.7516 6850.37355
506.9597 6893.93385
507.1678 6966.80057
507.3759 6944.12956
507.5840 6981.81218
507.7920 7075.83443
508.0001 7072.12761
508.2081 7196.88986
508.4161 7172.04800
508.6241 7374.94027
508.8321 7341.68125
509.0401 7304.81782
509.2480 7458.86602
509.4560 7452.14869
509.6639 7549.30433
509.8718 7541.29677
510.0797 7684.81842
510.2876 7715.12835
510.4955 7794.09803
510.7033 7840.27973
510.9112 7872.69907
511.1190 7984.88680
511.3268 7956.39955
511.5346 8010.24065
511.7424 8050.68803
511.9501 8195.97094
512.1579 8209.75377
512.3656 8244.85595
512.5733 8212.35469
512.7810 8382.29513
512.9887 8453.50301
513.1964 8487.45833
513.4040 8537.26493
513.6117 8577.75327
513.8193 8711.73139
514.0269 8733.56273
514.2345 8830.80029
514.4421 8809.82909
514.6497 8765.26529
514.8572 8988.94444
515.0647 9056.99844
515.2723 9110.98290
515.4798 9164.02529
515.6873 9258.96912
515.8947 9322.02607
516.1022 9275.94678
516.3097 9377.83322
516.5171 9503.92666
516.7245 9549.78068
516.9319 9646.19905
517.1393 9706.77796
517.3467 9702.19051
517.5540 9717.38644
517.7614 9959.82498
517.9687 9973.56685
518.1760 9999.14598
518.3833 10151.98589
518.5906 10152.47740
518.7978 10358.46210
519.0051 10324.73205
519.2123 10486.58302
519.4196 10302.38872
519.6268 10502.43430
519.8340 10551.27836
520.0411 10630.73955
520.2483 10868.85687
520.4554 10798.44771
520.6626 11108.77641
520.8697 11046.39528
521.0768 11293.72847
521.2839 11199.25567
521.4909 11226.98517
521.6980 11423.77448
521.9050 11637.78722
522.1121 11520.31573
522.3191 11783.68451
522.5261 11760.56295
522.7331 11818.52046
522.9400 12008.36716
523.1470 12031.24298
523.3539 12157.29545
523.5608 12184.69727
523.7677 12160.77700
523.9746 12297.33555
524.1815 12600.10725
524.3884 12505.08150
524.5952 12525.45879
524.8020 12836.64765
525.0089 12751.41119
525.2157 12895.50627
525.4225 12982.79070
525.6292 13017.77000
525.8360 13118.85774
526.0427 13215.56282
526.2494 13401.35455
526.4562 13323.83893
526.6629 13482.35171
526.8695 13518.55980
527.0762 13760.05627
527.2829 13833.20972
527.4895 13938.55723
527.6961 14068.02982
527.9027 14183.67861
528.1093 14252.42892
528.3159 14296.35785
528.5224 14236.76196
528.7290 14683.93594
528.9355 14493.16765
529.1420 14922.93389
529.3485 14795.24304
529.5550 15022.87477
529.7615 14978.31097
529.9680 15167.54328
530.1744 15187.81817
530.3808 15399.29142
530.5872 15331.19646
530.7936 15489.27917
531.0000 15581.80640
531.2064 15743.80072
531.4127 15861.39509
531.6191 15970.18319
531.8254 16090.52183
532.0317 16283.82960
532.2380 16240.14643
532.4443 16352.37512
532.6505 16182.88522
532.8568 16483.44512
533.0630 16801.43323
533.2692 16728.21834
533.4754 16917.79881
533.6816 17145.53294
533.8878 17023.10536
534.0939 17383.03587
534.3001 17424.32292
534.5062 17491.00478
534.7123 17401.03752
534.9184 17546.58666
535.1245 17685.66421
535.3306 17687.81458
535.5366 18100.99228
535.7426 18104.49430
535.9487 18133.57546
536.1547 18151.41327
536.3607 18459.87832
536.5666 18339.78543
536.7726 18480.46041
536.9785 18696.70543
537.1845 18876.04605
537.3904 18778.78801
537.5963 18879.32280
537.8022 19089.21912
538.0080 19260.28595
538.2139 19314.08609
538.4197 19490.58003
538.6256 19425.67990
538.8314 19484.23133
539.0372 19672.05054
539.2430 20049.26591
539.4487 19829.66222
539.6545 20241.48825
539.8602 20125.02027
540.0659 20330.04242
540.2716 20762.14335
540.4773 20836.42318
540.6830 20930.77310
540.8887 21064.32114
541.0943 20779.91972
541.2999 20952.60444
541.5056 20983.61069
541.7112 21253.24626
541.9167 21100.89786
542.1223 21187.62934
542.3279 21599.88545
542.5334 21712.78996
542.7389 21946.52464
542.9444 22010.91277
543.1499 22136.41230
543.3554 22045.97400
543.5609 22423.84471
543.7663 22447.60115
543.9718 22318.02617
544.1772 22541.72580
544.3826 22528.35256
544.5880 23183.74352
544.7934 23002.72356
544.9987 23078.31409
545.2041 23473.83829
545.4094 23419.09609
545.6147 23472.79383
545.8200 23801.63617
546.0253 23788.48821
546.2306 24053.37249
546.4358 23857.64812
546.6411 24213.38029
546.8463 24064.22672
547.0515 24327.14495
547.2567 24525.22449
547.4619 24548.05934
547.6670 24663.23710
547.8722 24849.82754
548.0773 25125.25885
548.2824 25138.81641
548.4876 25312.40224
548.6926 25383.46675
548.8977 25548.47160
549.1028 25617.38574
549.3078 25810.38632
549.5129 25783.43505
549.7179 25954.74764
549.9229 26148.17828
550.1279 26035.13041
550.3328 26396.78121
550.5378 26117.15156
550.7427 26489.65659
550.9476 26666.58061
551.1526 26048.83132
551.3575 26714.60548
551.5623 26819.13381
551.7672 26718.25087
551.9720 26828.26775
552.1769 27022.92718
552.3817 27249.22772
552.5865 27078.63193
552.7913 27338.02765
552.9961 27204.74584
553.2008 27429.73569
553.4056 27687.84119
553.6103 27647.61908
553.8150 27902.87791
554.0197 27966.67214
554.2244 27855.87703
554.4291 27959.15609
554.6337 28347.79912
554.8384 28155.20814
555.0430 28376.24541
555.2476 28120.43363
555.4522 28154.38895
555.6568 28539.42756
555.8613 28726.34566
556.0659 28866.77488
556.2704 28544.83419
556.4750 28903.76120
556.6795 29159.79825
556.8839 28828.37547
557.0884 29318.53631
557.2929 29202.00689
557.4973 29044.06754
557.7018 29138.25362
557.9062 29390.93200
558.1106 29426.66906
558.3150 29207.41352
558.5193 29628.51686
558.7237 29706.38063
558.9280 29479.42473
559.1323 29691.75813
559.3367 29531.17690
559.5410 29825.71577
559.7452 29541.88778
559.9495 29908.12603
560.1537 29883.52993
560.3580 29822.68477
560.5622 30019.02354
560.7664 30272.68495
560.9706 30333.20242
561.1748 30478.73108
561.3789 30428.86305
561.5831 30468.85987
561.7872 30407.74849
561.9913 30678.57187
562.1954 30570.82824
562.3995 30681.39807
562.6036 30725.94139
562.8076 30544.45040
563.0117 30784.39042
563.2157 30694.91467
563.4197 30857.70770
563.6237 31087.14164
563.8277 30777.79596
564.0316 30600.21659
564.2356 31038.50238
564.4395 31046.03891
564.6434 31223.37252
564.8473 31476.35810
565.0512 31425.34320
565.2551 31408.63177
565.4590 31463.12822
565.6628 31694.40533
565.8666 31913.23080
566.0705 31645.45888
566.2743 31631.45077
566.4780 31695.61364
566.6818 31591.57682
566.8856 32173.48666
567.0893 31751.21599
567.2930 31960.06784
567.4967 31670.56698
567.7004 31880.17658
567.9041 31949.88944
568.1078 31955.35751
568.3114 32211.70176
568.5151 32136.25459
568.7187 31871.90279
568.9223 32065.82495
569.1259 32252.00579
569.3295 32599.64848
569.5330 32558.75055
569.7366 32506.54782
569.9401 32619.12466
570.1436 32710.05448
570.3471 32801.78300
570.5506 32737.66110
570.7541 32642.06191
570.9575 32621.11119
571.1609 32326.75665
571.3644 32967.70943
571.5678 32920.46279
571.7712 33277.75141
571.9746 33156.04063
572.1779 32952.86165
572.3813 32828.52947
572.5846 33073.24125
572.7879 32908.50265
572.9912 33571.06150
573.1945 33427.88800
573.3978 33040.26896
573.6010 33373.41203
573.8043 33921.83759
574.0075 33121.26612
574.2107 33249.94000
574.4139 33228.68208
574.6171 33321.55747
574.8203 33149.73289
575.0234 33578.35227
575.2266 33073.15934
575.4297 33170.11018
575.6328 33404.74596
575.8359 33799.02090
576.0390 33078.29974
576.2420 33246.23318
576.4451 32980.32491
576.6481 33323.62591
576.8512 33792.26260
577.0542 33079.44660
577.2571 33549.20967
577.4601 33569.87368
577.6631 33455.86326
577.8660 33271.05456
578.0689 33238.47137
578.2719 33359.48585
578.4748 33165.91184
578.6776 33131.23973
578.8805 33287.84790
579.0834 32784.45718
579.2862 33367.14525
579.4890 33686.23926
579.6918 33462.84683
579.8946 33119.93494
580.0974 33513.82077
580.3002 33223.00921
580.5029 33161.18103
580.7057 33494.22171
580.9084 33052.78205
581.1111 33598.11517
581.3138 33368.31259
581.5164 33097.24345
581.7191 32920.87238
581.9217 33094.62205
582.1244 33145.00208
582.3270 33138.94009
582.5296 33085.46763
582.7322 33347.11612
582.9347 33190.85610
583.1373 32956.60943
583.3398 33202.03801
583.5424 32890.74676
583.7449 32844.99514
583.9474 32762.74871
584.1498 32683.00081
584.3523 33109.71558
584.5548 32726.92974
584.7572 32974.73396
584.9596 33210.04557
585.1620 33778.86889
585.3644 32866.74457
585.5668 32932.44340
585.7691 33184.99891
585.9715 33051.73758
586.1738 33327.29178
586.3761 33262.61693
586.5784 33467.55716
586.7807 33445.93061
586.9830 33426.72066
587.1852 33385.02402
587.3875 33057.26710
587.5897 33683.80218
587.7919 33394.28084
587.9941 33107.60617
588.1963 33263.33371
588.3984 33579.86776
588.6006 33012.43706
588.8027 33656.85091
589.0048 33300.38147
589.2069 33373.92403
589.4090 33420.49484
589.6111 33654.98726
589.8131 33587.54765
590.0152 33761.82979
590.2172 33667.35699
590.4192 33948.25638
590.6212 33613.04486
590.8232 33448.28577
591.0252 33833.61109
591.2271 33998.67737
591.4291 33937.83222
591.6310 33759.59750
591.8329 33713.70252
592.0348 34063.22935
592.2367 34133.59755
592.4385 34399.77205
592.6404 34572.82541
592.8422 34674.24083
593.0440 34803.05806
593.2458 35048.62999
593.4476 35209.43650
593.6494 35238.74293
593.8512 35375.17861
594.0529 35687.12521
594.2546 35566.95040
594.4563 35480.13701
594.6580 35247.95879
594.8597 35220.20881
595.0614 35245.09163
595.2630 35627.57028
595.4647 35569.38749
595.6663 35293.44418
595.8679 35649.66786
596.0695 36123.56783
596.2711 35857.76197
596.4727 35949.75672
596.6742 36271.88173
596.8757 36466.60260
597.0773 36299.14019
597.2788 35924.50527
597.4802 36266.94612
597.6817 36763.90622
597.8832 36565.60140
598.0846 36910.80702
598.2860 36753.66638
598.4875 36421.99784
598.6889 37049.57738
598.8902 37139.42177
599.0916 37206.06267
599.2930 36825.57056
599.4943 37347.88451
599.6956 37352.00093
599.8969 37245.36319
600.0982 36832.53365
600.2995 36868.55742
600.5008 37716.98992
600.7020 37115.84965
600.9032 37698.74251
601.1045 37510.55467
601.3057 37150.21456
601.5068 37989.96367
601.7080 37967.23122
601.9092 37617.99111
602.1103 38183.47624
602.3115 38005.28248
602.5126 38139.91594
602.7137 37996.82437
602.9147 38029.53043
603.1158 38327.48940
603.3169 38612.54617
603.5179 38458.27268
603.7189 38291.48611
603.9199 38465.07194
604.1209 38440.53727
604.3219 38322.90195
604.5229 38421.57308
604.7238 38693.62525
604.9247 38675.23449
605.1257 38855.10759
605.3266 39182.41395
605.5275 38739.72503
605.7283 38905.01659
605.9292 39134.83964
606.1300 38514.85806
606.3309 38722.52209
606.5317 39142.68336
606.7325 39345.53467
606.9332 39211.53607
607.1340 39428.96891
607.3348 39379.71526
607.5355 38799.15708
607.7362 39896.76593
607.9369 39065.96645
608.1376 39462.90375
608.3383 39212.41670
608.5390 40098.42942
608.7396 39666.14417
608.9402 40217.58024
609.1409 40289.62778
609.3415 39976.00185
609.5421 39830.98518
609.7426 40152.18860
609.9432 39571.75329
610.1437 39489.22015
610.3443 40427.37416
610.5448 40080.53017
610.7453 40476.09533
610.9457 40331.22202
611.1462 40509.02667
611.3467 40314.40820
611.5471 40662.74721
611.7475 40052.35012
611.9479 40883.06768
612.1483 40365.91462
612.3487 41012.60171
612.5491 40745.48514
612.7494 41491.80592
612.9497 40749.99068
613.1501 41145.49440
613.3504 40975.18532
613.5506 41743.13264
613.7509 41313.24352
613.9512 41146.86654
614.1514 41415.37572
614.3516 41829.22925
614.5519 41552.38483
614.7521 41786.44718
614.9522 41414.94565
615.1524 41353.93666
615.3526 41909.71442
615.5527 42518.78033
615.7528 42007.25917
615.9529 42043.07814
616.1530 42465.20546
616.3531 42460.57705
616.5532 42404.70847
616.7532 42066.91650
616.9532 42431.80309
617.1533 42085.96261
617.3533 42605.04077
617.5532 42220.06360
617.7532 42482.30600
617.9532 41635.81908
618.1531 42777.09062
618.3530 42162.51568
618.5530 42479.99180
618.7528 42525.76390
618.9527 42612.16770
619.1526 42177.58873
619.3524 42337.49413
619.5523 42629.10440
619.7521 42742.76667
619.9519 42747.84563
620.1517 42793.78157
620.3515 43152.79049
620.5512 43441.75888
620.7510 43075.95070
620.9507 42806.82713
621.1504 42906.35841
621.3501 43018.79190
621.5498 43264.83486
621.7495 43362.09290
621.9492 42958.62257
622.1488 42668.87595
622.3484 42632.48355
622.5480 42607.94888
622.7476 43420.05041
622.9472 42613.68320
623.1468 42939.94510
623.3463 44103.99006
623.5459 43723.80514
623.7454 43415.93400
623.9449 43388.63457
624.1444 43338.09070
624.3439 43804.29031
624.5433 43529.28907
624.7428 43289.67672
624.9422 43447.94375
625.1416 43517.59516
625.3410 43488.41161
625.5404 43421.27919
625.7398 43424.96554
625.9391 43660.13379
626.1385 43332.99126
626.3378 43420.15281
626.5371 44117.77289
626.7364 43420.74672
626.9357 43843.30411
627.1350 43897.88248
627.3342 43546.14385
627.5335 43393.67258
627.7327 43599.43200
627.9319 43572.76744
628.1311 44587.00349
628.3303 43813.77240
628.5294 44055.94471
628.7286 44083.79708
628.9277 44426.54513
629.1268 44074.13067
629.3259 44748.99781
629.5250 44768.14632
629.7241 44762.22769
629.9231 43896.81754
630.1222 44859.21949
630.3212 44700.97295
630.5202 44237.59954
630.7192 44851.49865
630.9182 44192.56470
631.1171 44461.74972
631.3161 44178.12652
631.5150 44199.20012
631.7140 44533.67438
631.9129 44603.65347
632.1118 45067.31360
632.3106 44959.01701
632.5095 44697.65524
632.7083 44567.36347
632.9072 44752.56128
633.1060 44877.52833
633.3048 44881.54235
633.5036 44324.96588
633.7023 44572.70866
633.9011 45104.17703
634.0998 44917.60708
634.2986 45136.67830
634.4973 44785.86125
634.6960 45030.08153
634.8947 44772.11938
635.0933 45116.01429
635.2920 44691.90045
635.4906 44254.24952
635.6892 45162.54414
635.8878 45089.84125
636.0864 45090.53756
636.2850 44851.82632
636.4836 44865.99827
636.6821 44892.97002
636.8806 44992.80849
637.0792 45003.41697
637.2777 44972.39025
637.4761 45016.31918
637.6746 44718.68788
637.8731 45156.72791
638.0715 44642.44200
638.2699 45376.10633
638.4683 45039.42026
638.6667 44327.91496
638.8651 45250.09481
639.0635 45443.56642
639.2618 45471.41879
639.4602 45351.20303
639.6585 45243.99186
639.8568 45405.61755
640.0551 45526.26339
640.2534 45433.16273
640.4516 45275.75586
640.6499 45387.32919
640.8481 46144.27892
641.0463 45894.05810
641.2445 46223.80155
641.4427 46002.25229
641.6409 45757.60194
641.8390 46010.21889
642.0372 46347.62174
642.2353 46147.16656
642.4334 45573.79675
642.6315 45937.08592
642.8296 45858.71016
643.0277 45651.29189
643.2257 46322.02213
643.4237 46378.56655
643.6218 46357.75919
643.8198 45989.04289
644.0178 46093.14114
644.2157 45982.75563
644.4137 45915.13170
644.6116 46736.32621
644.8096 46997.21695
