# Averages = 100
# wavelength [µm]	intensity
446.8250 14.33578
447.0374 36746.70328
447.2498 1227.57295
447.4621 1226.24177
447.6745 1230.74730
447.8868 1238.52958
448.0992 1240.74139
448.3115 1236.42017
448.5238 1247.27441
448.7360 1235.37571
448.9483 1250.73547
449.1606 1244.50965
449.3728 1263.92439
449.5850 1234.55652
449.7972 1246.00467
450.0094 1239.71740
450.2216 1252.98824
450.4337 1247.45872
450.6459 1748.49428
450.8580 2126.24212
451.0701 2157.10500
451.2822 2179.77602
451.4943 2175.20905
451.7064 2145.45206
451.9184 2149.03601
452.1305 2247.01083
452.3425 2338.80079
452.5545 2247.83002
452.7665 2268.18683
452.9785 2370.99486
453.1905 2386.57990
453.4024 2343.75688
453.6143 2465.63150
453.8263 2446.60587
454.0382 2648.39223
454.2501 2437.94296
454.4619 2413.51069
454.6738 2546.85394
454.8856 2680.77061
455.0975 2480.45879
455.3093 2472.12356
455.5211 2543.02424
455.7329 2515.56097
455.9446 2570.15982
456.1564 2576.71332
456.3681 2676.34700
456.5798 2784.68455
456.7916 2709.05306
457.0033 2689.31064
457.2149 2651.01363
457.4266 2704.40417
457.6382 2745.85506
457.8499 2705.57152
458.0615 2825.54152
458.2731 2735.57426
458.4847 2855.05275
458.6963 2947.94862
458.9078 2972.81096
459.1194 3152.56117
459.3309 3165.38146
459.5424 3007.33971
459.7539 2899.49368
459.9654 2915.57023
460.1769 2959.27388
460.3883 2947.47758
460.5998 2804.26313
460.8112 2801.90797
461.0226 2862.58928
461.2340 2946.80175
461.4454 2908.66858
461.6567 2889.64295
461.8681 2893.55457
462.0794 2846.75848
462.2907 2980.90043
462.5020 3236.83509
462.7133 3331.63556
462.9246 3093.27248
463.1359 2954.35876
463.3471 2826.46311
463.5583 2888.51656
463.7696 3305.76972
463.9808 3136.25934
464.1919 3078.32231
464.4031 3041.17215
464.6143 3082.27489
464.8254 2990.32109
465.0365 2945.16338
465.2476 3227.23012
465.4587 3396.47425
465.6698 2979.01630
465.8809 3039.00131
466.0919 3018.99265
466.3030 3090.38484
466.5140 3120.12135
466.7250 3036.58470
466.9360 3173.88053
467.1469 3101.40292
467.3579 2892.30531
467.5688 2879.36214
467.7798 3133.90418
467.9907 3251.94910
468.2016 3152.70453
468.4125 3099.49830
468.6233 2948.78828
468.8342 2981.24859
469.0450 3159.19659
469.2559 3263.49964
469.4667 3209.96574
469.6775 2951.40968
469.8882 3120.94054
470.0990 3091.38835
470.3098 3369.52298
470.5205 3201.30283
470.7312 3275.02971
470.9419 3499.56900
471.1526 3389.67500
471.3633 3101.21860
471.5739 3132.53204
471.7846 3114.67375
471.9952 3045.80056
472.2058 3170.62426
472.4164 3136.48462
472.6270 3108.12025
472.8376 3257.84725
473.0481 3436.79876
473.2587 3517.85736
473.4692 3436.61444
473.6797 3316.29628
473.8902 3062.26623
474.1007 3053.84908
474.3111 3079.63301
474.5216 2992.73769
474.7320 3121.92356
474.9424 3291.12674
475.1528 3360.79864
475.3632 3201.75338
475.5736 3174.20820
475.7840 3185.02148
475.9943 3213.26297
476.2046 3238.06387
476.4149 3305.25772
476.6252 3330.32486
476.8355 3446.56757
477.0458 3527.07322
477.2561 3515.78891
477.4663 3348.81802
477.6765 3377.36670
477.8867 3384.08404
478.0969 3364.48498
478.3071 3356.86654
478.5173 3469.09522
478.7274 3443.06554
478.9375 3495.02251
479.1477 3457.83140
479.3578 3592.99733
479.5679 3552.61139
479.7779 3596.33552
479.9880 3583.94531
480.1980 3620.76779
480.4081 3641.39084
480.6181 3517.48873
480.8281 3625.02757
481.0381 3570.03960
481.2480 3560.10696
481.4580 3630.88476
481.6679 3593.12021
481.8778 3548.18778
482.0877 3571.20695
482.2976 3471.42991
482.5075 3564.89920
482.7174 3643.29545
482.9272 3716.20313
483.1371 3581.77447
483.3469 3626.07203
483.5567 3766.19405
483.7665 3633.83383
483.9762 3693.32732
484.1860 3848.13328
484.3957 3832.54824
484.6055 3682.32973
484.8152 3770.16711
485.0249 3888.06867
485.2346 3871.13197
485.4442 3870.92717
485.6539 3897.40741
485.8635 3874.44968
486.0732 3752.77986
486.2828 3791.89606
486.4924 3791.95750
486.7019 3910.71921
486.9115 3857.65634
487.1210 3867.13843
487.3306 3991.79829
487.5401 3968.75864
487.7496 4040.41707
487.9591 4081.47884
488.1686 4035.74770
488.3780 3960.71012
488.5875 4067.24546
488.7969 4161.71826
489.0063 4133.62013
489.2157 4195.36638
489.4251 4111.31775
489.6345 4090.16223
489.8438 4209.39497
490.0531 4021.10472
490.2625 4111.23583
490.4718 4191.49572
490.6811 4265.09972
490.8903 4277.48993
491.0996 4310.56462
491.3089 4329.99985
491.5181 4370.87730
491.7273 4377.22601
491.9365 4370.63155
492.1457 4450.25657
492.3549 4467.56191
492.5640 4386.66714
492.7732 4443.37540
492.9823 4506.39140
493.1914 4628.63465
493.4005 4584.82860
493.6096 4553.12604
493.8187 4518.84305
494.0277 4624.19056
494.2368 4616.30588
494.4458 4661.17688
494.6548 4713.91207
494.8638 4780.47105
495.0728 4740.24895
495.2817 4759.41794
495.4907 4784.40315
495.6996 4827.57434
495.9085 4830.35957
496.1174 4908.40766
496.3263 4897.00048
496.5352 4919.65101
496.7440 5009.37252
496.9529 5053.62913
497.1617 4990.12162
497.3705 5016.43801
497.5793 5133.09031
497.7881 5042.34482
497.9969 5145.84916
498.2056 5199.26018
498.4144 5233.01071
498.6231 5271.79924
498.8318 5309.58426
499.0405 5315.58481
499.2492 5281.93668
499.4578 5353.96374
499.6665 5350.93275
499.8751 5503.93650
500.0837 5489.74407
500.2923 5513.93058
500.5009 5529.22891
500.7095 5665.21403
500.9180 5603.42682
501.1266 5677.64520
501.3351 5678.48487
501.5436 5791.67610
501.7521 5761.16137
501.9606 5833.16795
502.1691 5875.76570
502.3775 5846.17255
502.5860 5909.10663
502.7944 5955.90272
503.0028 6025.69749
503.2112 6022.72794
503.4196 6079.23140
503.6279 6142.80035
503.8363 6086.52217
504.0446 6243.25321
504.2529 6217.69456
504.4612 6288.22661
504.6695 6369.77672
504.8778 6376.94461
505.0860 6407.76654
505.2943 6397.85438
505.5025 6494.98953
505.7107 6520.28195
505.9189 6593.39443
506.1271 6642.52520
506.3353 6630.87226
506.5434 6630.58554
506.7516 6731.32513
506.9597 6786.72268
507.1678 6858.19679
507.3759 6832.45382
507.5840 6889.38735
507.7920 6964.15869
508.0001 6957.44136
508.2081 7084.14918
508.4161 7058.36526
508.6241 7232.58596
508.8321 7207.00683
509.0401 7192.32289
509.2480 7317.20803
509.4560 7295.86819
509.6639 7399.24965
509.8718 7419.36071
510.0797 7528.98848
510.2876 7579.65522
510.4955 7649.32712
510.7033 7706.17873
510.9112 7728.78831
511.1190 7837.86312
511.3268 7804.97274
511.5346 7892.11381
511.7424 7910.32026
511.9501 8031.58049
512.1579 8045.24044
512.3656 8088.94409
512.5733 8096.70589
512.7810 8218.08900
512.9887 8301.13413
513.1964 8343.89572
513.4040 8391.24476
513.6117 8438.02036
513.8193 8549.20459
514.0269 8569.21324
514.2345 8676.52680
514.4421 8656.72295
514.6497 8627.78515
514.8572 8817.24274
515.0647 8867.27461
515.2723 8931.33508
515.4798 9011.06250
515.6873 9101.68512
515.8947 9149.56663
516.1022 9116.10282
516.3097 9219.52524
516.5171 9335.27643
516.7245 9403.88339
516.9319 9479.98590
517.1393 9520.33089
517.3467 9506.67094
517.5540 9529.52627
517.7614 9769.36389
517.9687 9781.75410
518.1760 9805.83821
518.3833 9967.40247
518.5906 10005.78140
518.7978 10157.08533
519.0051 10111.98906
519.2123 10294.11492
519.4196 10107.95456
519.6268 10288.99500
519.8340 10358.64642
520.0411 10408.51446
520.2483 10643.84655
520.4554 10610.87425
520.6626 10894.31312
520.8697 10859.31334
521.0768 11064.54029
521.2839 11001.99532
521.4909 11029.08995
521.6980 11197.22818
521.9050 11397.56048
522.1121 11287.25689
522.3191 11549.76552
522.5261 11564.08082
522.7331 11575.34465
522.9400 11785.89632
523.1470 11801.15369
523.3539 11909.47075
523.5608 11924.40045
523.7677 11947.01002
523.9746 12072.26379
524.1815 12353.16318
524.3884 12274.93078
524.5952 12276.95827
524.8020 12566.58201
525.0089 12499.79775
525.2157 12634.88176
525.4225 12709.42783
525.6292 12758.82483
525.8360 12846.66221
526.0427 12962.57724
526.2494 13125.02212
526.4562 13087.21662
526.6629 13230.57443
526.8695 13239.31926
527.0762 13500.78343
527.2829 13564.68006
527.4895 13689.36039
527.6961 13799.84831
527.9027 13929.07514
528.1093 13990.16604
528.3159 14027.56195
528.5224 13981.48266
528.7290 14359.90632
528.9355 14228.20145
529.1420 14613.50629
529.3485 14514.09789
529.5550 14722.58111
529.7615 14681.60125
529.9680 14846.83137
530.1744 14880.56142
530.3808 15092.60810
530.5872 15029.89930
530.7936 15202.17443
531.0000 15235.26960
531.2064 15450.61352
531.4127 15547.03189
531.6191 15653.13715
531.8254 15752.91419
532.0317 15978.39555
532.2380 15911.93896
532.4443 16027.03480
532.6505 15866.92461
532.8568 16183.92969
533.0630 16458.31654
533.2692 16390.24206
533.4754 16558.31886
533.6816 16736.28734
533.8878 16658.15733
534.0939 17017.26865
534.3001 17045.91974
534.5062 17138.87704
534.7123 17045.73542
534.9184 17197.71518
535.1245 17316.70216
535.3306 17333.49551
535.5366 17710.36272
535.7426 17705.73431
535.9487 17795.25102
536.1547 17768.97558
536.3607 18109.94190
536.5666 17958.37173
536.7726 18089.74893
536.9785 18337.83986
537.1845 18508.96813
537.3904 18392.56159
537.5963 18500.05947
537.8022 18677.59788
538.0080 18867.66986
538.2139 18939.08253
538.4197 19074.67854
538.6256 19061.44866
538.8314 19103.96449
539.0372 19246.09352
539.2430 19616.42771
539.4487 19433.62602
539.6545 19812.37736
539.8602 19694.33244
540.0659 19932.34737
540.2716 20312.14318
540.4773 20410.69143
540.6830 20488.30945
540.8887 20638.05692
541.0943 20387.50843
541.2999 20509.56736
541.5056 20556.58873
541.7112 20854.77298
541.9167 20710.80077
542.1223 20742.35997
542.3279 21177.67621
542.5334 21261.45861
542.7389 21477.90843
542.9444 21566.46260
543.1499 21636.93320
543.3554 21545.73715
543.5609 21939.78682
543.7663 21980.95099
543.9718 21837.77750
544.1772 22042.14430
544.3826 22071.71697
544.5880 22688.11460
544.7934 22516.14667
544.9987 22610.76282
545.2041 22960.57636
545.4094 22936.00074
545.6147 22944.84796
545.8200 23296.60708
546.0253 23255.97538
546.2306 23537.42772
546.4358 23358.59909
546.6411 23698.39807
546.8463 23558.60372
547.0515 23830.38965
547.2567 23989.49634
547.4619 24023.63598
547.6670 24164.10616
547.8722 24281.78244
548.0773 24607.10228
548.2824 24625.18584
548.4876 24773.78646
548.6926 24841.61518
548.8977 24949.46122
549.1028 25100.31459
549.3078 25283.09580
549.5129 25295.77273
549.7179 25439.04862
549.9229 25587.91547
550.1279 25506.52920
550.3328 25870.22797
550.5378 25580.07175
550.7427 25909.75376
550.9476 26080.45196
551.1526 25503.96923
551.3575 26143.61131
551.5623 26217.95258
551.7672 26128.72258
551.9720 26236.60957
552.1769 26403.39615
552.3817 26614.21405
552.5865 26477.61454
552.7913 26736.47779
552.9961 26625.12973
553.2008 26803.20061
553.4056 27127.57838
553.6103 27030.48418
553.8150 27275.70796
554.0197 27363.29958
554.2244 27234.44139
554.4291 27304.66624
554.6337 27743.44354
554.8384 27532.01125
555.0430 27755.26032
555.2476 27466.08713
555.4522 27506.67788
555.6568 27914.36701
555.8613 28034.19367
556.0659 28168.68377
556.2704 27891.06113
556.4750 28270.77502
556.6795 28517.04326
556.8839 28181.97509
557.0884 28679.11950
557.2929 28531.74767
557.4973 28375.34430
557.7018 28529.96594
557.9062 28704.33000
558.1106 28725.87463
558.3150 28556.93769
558.5193 28979.55652
558.7237 29083.90053
558.9280 28812.15555
559.1323 29023.81313
559.3367 28838.06236
559.5410 29120.76397
559.7452 28847.29870
559.9495 29234.16000
560.1537 29209.80965
560.3580 29117.38482
560.5622 29320.07228
560.7664 29567.85602
560.9706 29627.86151
561.1748 29738.90237
561.3789 29666.01517
561.5831 29712.50406
561.7872 29623.70413
561.9913 29933.07029
562.1954 29836.54952
562.3995 29997.66323
562.6036 30016.79125
562.8076 29834.70635
563.0117 30072.37313
563.2157 29967.27137
563.4197 30142.70037
563.6237 30384.77028
563.8277 30084.16943
564.0316 29904.68544
564.2356 30328.94265
564.4395 30309.48695
564.6434 30528.04617
564.8473 30731.75762
565.0512 30687.21430
565.2551 30655.02023
565.4590 30714.49325
565.6628 30920.21171
565.8666 31118.12741
566.0705 30900.91984
566.2743 30899.22003
566.4780 30989.14634
566.6818 30864.81415
566.8856 31435.91072
567.0893 31010.13802
567.2930 31214.99633
567.4967 30903.07021
567.7004 31091.29902
567.9041 31271.99130
568.1078 31239.85867
568.3114 31484.14038
568.5151 31424.15538
568.7187 31135.04363
568.9223 31329.17059
569.1259 31493.68392
569.3295 31838.37754
569.5330 31791.97057
569.7366 31829.18216
569.9401 31887.63119
570.1436 31960.39552
570.3471 32057.53067
570.5506 32024.94749
570.7541 31940.18206
570.9575 31888.12270
571.1609 31609.31223
571.3644 32174.73592
571.5678 32144.26215
571.7712 32585.51750
571.9746 32396.61286
572.1779 32160.76878
572.3813 32038.54600
572.5846 32274.06241
572.7879 32177.33685
572.9912 32820.56287
573.1945 32687.44490
573.3978 32305.21201
573.6010 32617.75252
573.8043 33157.57661
574.0075 32341.97305
574.2107 32482.54563
574.4139 32441.27906
574.6171 32547.13856
574.8203 32430.48626
575.0234 32889.72278
575.2266 32303.28692
575.4297 32421.59808
575.6328 32644.80619
575.8359 33009.79518
576.0390 32355.87876
576.2420 32457.08938
576.4451 32209.51043
576.6481 32584.28872
576.8512 33040.69903
577.0542 32318.09374
577.2571 32746.20112
577.4601 32816.93797
577.6631 32695.00191
577.8660 32563.07176
578.0689 32427.98774
578.2719 32618.69459
578.4748 32393.78666
578.6776 32371.13613
578.8805 32523.30021
579.0834 31995.78442
579.2862 32512.89653
579.4890 32886.32315
579.6918 32687.21962
579.8946 32360.05662
580.0974 32751.25961
580.3002 32439.33349
580.5029 32347.07250
580.7057 32723.14100
580.9084 32223.41614
581.1111 32802.06971
581.3138 32561.53578
581.5164 32340.12988
581.7191 32147.86658
581.9217 32311.11016
582.1244 32322.92694
582.3270 32331.36457
582.5296 32307.01423
582.7322 32556.82545
582.9347 32424.36284
583.1373 32163.02154
583.3398 32354.48614
583.5424 32134.16566
583.7449 32063.69506
583.9474 31961.25566
584.1498 31878.62012
584.3523 32349.44814
584.5548 31997.89382
584.7572 32201.44144
584.9596 32416.53960
585.1620 33008.09537
585.3644 32113.50166
585.5668 32163.02154
585.7691 32451.08883
585.9715 32273.63234
586.1738 32549.80092
586.3761 32510.07033
586.5784 32680.25653
586.7807 32650.37667
586.9830 32659.59253
587.1852 32633.05085
587.3875 32258.62073
587.5897 32899.61446
587.7919 32625.24809
587.9941 32262.90098
588.1963 32400.42208
588.3984 32753.96293
588.6006 32218.86965
588.8027 32800.57470
589.0048 32468.45560
589.2069 32561.51530
589.4090 32607.34884
589.6111 32810.20015
589.8131 32739.60667
590.0152 32948.72475
590.2172 32858.81893
590.4192 33167.81645
590.6212 32859.84291
590.8232 32662.09105
591.0252 33055.81304
591.2271 33138.18234
591.4291 33083.68590
591.6310 32940.49192
591.8329 32914.13456
592.0348 33312.01393
592.2367 33321.61890
592.4385 33593.75299
592.6404 33759.47462
592.8422 33835.88434
593.0440 33919.11379
593.2458 34205.56318
593.4476 34342.28557
593.6494 34390.53571
593.8512 34486.25777
594.0529 34844.48847
594.2546 34717.10481
594.4563 34629.75894
594.6580 34398.05176
594.8597 34402.94640
595.0614 34452.85540
595.2630 34730.84668
595.4647 34676.78031
595.6663 34414.53791
595.8679 34791.75327
596.0695 35231.00161
596.2711 34955.63173
596.4727 35110.76536
596.6742 35408.17139
596.8757 35609.03616
597.0773 35449.11028
597.2788 35049.53110
597.4802 35382.73561
597.6817 35884.83611
597.8832 35691.40546
598.0846 35965.09601
598.2860 35855.69352
598.4875 35542.53862
598.6889 36110.01028
598.8902 36227.70704
599.0916 36272.04556
599.2930 35920.40933
599.4943 36418.80300
599.6956 36432.23768
599.8969 36262.44059
600.0982 35869.53779
600.2995 36004.23269
600.5008 36854.48788
600.7020 36217.54912
600.9032 36758.11047
601.1045 36556.24219
601.3057 36214.80484
601.5068 36966.73704
601.7080 36999.46358
601.9092 36687.84466
602.1103 37220.78757
602.3115 37065.73585
602.5126 37234.97999
602.7137 37103.27512
602.9147 37139.44225
603.1158 37392.07967
603.3169 37697.80045
603.5179 37493.53605
603.7189 37369.47010
603.9199 37553.70537
604.1209 37499.16796
604.3219 37454.52224
604.5229 37519.56573
604.7238 37792.37565
604.9247 37771.30205
605.1257 37954.55429
605.3266 38321.30453
605.5275 37847.22025
605.7283 37984.67991
605.9292 38155.39859
606.1300 37562.83931
606.3309 37775.52086
606.5317 38175.44820
606.7325 38317.02428
606.9332 38262.91695
607.1340 38504.51582
607.3348 38351.10248
607.5355 37858.19736
607.7362 38888.77620
607.9369 38149.97147
608.1376 38425.54614
608.3383 38187.10114
608.5390 39063.40649
608.7396 38647.91459
608.9402 39267.28178
609.1409 39206.90766
609.3415 38924.12414
609.5421 38815.68419
609.7426 39149.52358
609.9432 38597.98511
610.1437 38482.43872
610.3443 39290.21903
610.5448 39088.10499
610.7453 39427.43294
610.9457 39214.75138
611.1462 39326.32472
611.3467 39244.59029
611.5471 39572.20385
611.7475 39008.66429
611.9479 39797.72617
612.1483 39282.39579
612.3487 39870.34714
612.5491 39666.10321
612.7494 40404.25259
612.9497 39689.55246
613.1501 40066.70638
613.3504 39902.00873
613.5506 40609.52050
613.7509 40254.01360
613.9512 40089.86891
614.1514 40298.14733
614.3516 40709.44089
614.5519 40544.21077
614.7521 40756.35986
614.9522 40334.90837
615.1524 40342.93641
615.3526 40800.73934
615.5527 41351.25382
615.7528 40939.07963
615.9529 40928.28683
616.1530 41387.54383
616.3531 41393.03238
616.5532 41270.35905
616.7532 40922.96212
616.9532 41267.06183
617.1533 41049.40371
617.3533 41485.06810
617.5532 41078.09575
617.7532 41333.86657
617.9532 40466.03981
618.1531 41523.07840
618.3530 40953.19013
618.5530 41221.12589
618.7528 41403.72278
618.9527 41412.32425
619.1526 40988.21040
619.3524 41127.57467
619.5523 41372.94181
619.7521 41496.90536
619.9519 41478.69892
620.1517 41541.94019
620.3515 41892.73676
620.5512 42180.98836
620.7510 41936.74761
620.9507 41619.61965
621.1504 41644.99398
621.3501 41842.29529
621.5498 42041.05065
621.7495 42156.61753
621.9492 41760.43798
622.1488 41519.18726
622.3484 41468.66387
622.5480 41402.02297
622.7476 42150.30979
622.9472 41413.32775
623.1468 41694.88250
623.3463 42858.21067
623.5459 42516.73236
623.7454 42217.58556
623.9449 42176.03227
624.1444 42209.35273
624.3439 42577.92566
624.5433 42411.83540
624.7428 42157.82583
624.9422 42271.91817
625.1416 42372.45296
625.3410 42394.07951
625.5404 42266.08146
625.7398 42246.29808
625.9391 42536.08566
626.1385 42139.68083
626.3378 42279.27038
626.5371 42910.02427
626.7364 42264.99604
626.9357 42668.56876
627.1350 42649.52265
627.3342 42317.30116
627.5335 42132.88157
627.7327 42341.07808
627.9319 42345.23545
628.1311 43372.57850
628.3303 42648.64202
628.5294 42882.11046
628.7286 42934.12887
628.9277 43268.54168
629.1268 42952.02811
629.3259 43518.66011
629.5250 43548.49901
629.7241 43506.16750
629.9231 42678.87004
630.1222 43622.22589
630.3212 43436.12697
630.5202 42980.98639
630.7192 43581.57371
630.9182 42932.57241
631.1171 43128.19439
631.3161 42933.94455
631.5150 42872.32117
631.7140 43209.86738
631.9129 43295.45199
632.1118 43781.86505
632.3106 43636.47975
632.5095 43407.41445
632.7083 43301.55494
632.9072 43443.31534
633.1060 43573.75047
633.3048 43621.75485
633.5036 43062.70035
633.7023 43335.28499
633.9011 43825.73254
634.0998 43622.59452
634.2986 43904.29262
634.4973 43528.01933
634.6960 43723.53890
634.8947 43502.13300
635.0933 43871.46368
635.2920 43458.83894
635.4906 43036.52730
635.6892 43913.40608
635.8878 43862.84174
636.0864 43839.65873
636.2850 43607.72627
636.4836 43584.64566
636.6821 43665.13083
636.8806 43747.74589
637.0792 43731.95605
637.2777 43695.97324
637.4761 43732.54996
637.6746 43489.45607
637.8731 43895.67068
638.0715 43332.72502
638.2699 44092.93102
638.4683 43811.17148
638.6667 43053.42305
638.8651 43928.64297
639.0635 44103.88766
639.2618 44112.57105
639.4602 44017.05378
639.6585 43936.56861
639.8568 44131.69907
640.0551 44198.79053
640.2534 44087.54487
640.4516 43906.54539
640.6499 44080.17218
640.8481 44738.04118
641.0463 44552.43377
641.2445 44807.77452
641.4427 44615.42929
641.6409 44386.56878
641.8390 44579.65128
642.0372 44897.04548
642.2353 44788.91273
642.4334 44193.07670
642.6315 44504.85946
642.8296 44444.23958
643.0277 44252.24251
643.2257 44926.63862
643.4237 44951.17329
643.6218 44877.75361
643.8198 44511.24912
644.0178 44653.29623
644.2157 44635.94994
644.4137 44543.77087
644.6116 45309.30158
644.8096 45573.30524
