# Averages = 100
# wavelength [µm]	intensity
446.8250 14.33578
447.0374 36746.70328
447.2498 1230.89066
447.4621 1224.25524
447.6745 1230.99306
447.8868 1240.04508
448.0992 1242.05209
448.3115 1233.08198
448.5238 1248.87182
448.7360 1242.54360
448.9483 1240.29083
449.1606 1239.43069
449.3728 1273.48841
449.5850 1235.06851
449.7972 1236.72737
450.0094 1241.70393
450.2216 1253.82791
450.4337 1249.79341
450.6459 1716.64837
450.8580 2085.48754
451.0701 2123.68215
451.2822 2134.82310
451.4943 2127.16370
451.7064 2112.66408
451.9184 2094.25284
452.1305 2197.49095
452.3425 2296.46928
452.5545 2198.26918
452.7665 2219.48613
452.9785 2306.50432
453.1905 2325.32516
453.4024 2296.73551
453.6143 2402.79982
453.8263 2396.86071
454.0382 2571.06093
454.2501 2378.67474
454.4619 2372.34652
454.6738 2491.31302
454.8856 2612.16366
455.0975 2416.86936
455.3093 2416.95128
455.5211 2489.01930
455.7329 2465.44718
455.9446 2513.14437
456.1564 2518.01854
456.3681 2611.13968
456.5798 2719.94826
456.7916 2641.51105
457.0033 2618.00037
457.2149 2586.91221
457.4266 2627.83062
457.6382 2679.88999
457.8499 2642.65792
458.0615 2756.87313
458.2731 2666.10716
458.4847 2771.84378
458.6963 2870.76067
458.9078 2895.07006
459.1194 3071.68689
459.3309 3074.61548
459.5424 2925.60528
459.7539 2825.97160
459.9654 2842.92878
460.1769 2883.90863
460.3883 2872.39905
460.5998 2744.31908
460.8112 2722.67205
461.0226 2774.46518
461.2340 2864.94444
461.4454 2841.22897
461.6567 2822.44909
461.8681 2824.18987
462.0794 2787.71554
462.2907 2917.96635
462.5020 3155.77649
462.7133 3256.88470
462.9246 3036.31847
463.1359 2888.08649
463.3471 2762.87368
463.5583 2839.11956
463.7696 3222.41739
463.9808 3053.95148
464.1919 2989.19471
464.4031 2970.74251
464.6143 3008.34322
464.8254 2928.47243
465.0365 2878.91159
465.2476 3142.79236
465.4587 3309.66086
465.6698 2894.18944
465.8809 2967.46576
466.0919 2944.13940
466.3030 3005.84469
466.5140 3044.01883
466.7250 2959.13053
466.9360 3093.02672
467.1469 3022.84283
467.3579 2831.11200
467.5688 2813.86810
467.7798 3057.90406
467.9907 3175.72370
468.2016 3056.79816
468.4125 3030.76847
468.6233 2887.49258
468.8342 2908.27946
469.0450 3084.60957
469.2559 3174.14677
469.4667 3131.67189
469.6775 2890.23686
469.8882 3049.34355
470.0990 3002.64986
470.3098 3298.68375
470.5205 3120.05991
470.7312 3197.67793
470.9419 3413.92295
471.1526 3301.79666
471.3633 3031.60814
471.5739 3059.80867
471.7846 3035.00777
471.9952 2969.20653
472.2058 3077.09353
472.4164 3066.21881
472.6270 3045.90296
472.8376 3174.04437
473.0481 3356.23167
473.2587 3436.02053
473.4692 3344.41489
473.6797 3225.87846
473.8902 2992.10282
474.1007 2965.88882
474.3111 3001.01149
474.5216 2928.65675
474.7320 3038.53028
474.9424 3205.39877
475.1528 3270.27842
475.3632 3141.97318
475.5736 3089.77045
475.7840 3091.87986
475.9943 3127.33020
476.2046 3152.86837
476.4149 3228.92993
476.6252 3250.06497
476.8355 3360.12281
477.0458 3423.26168
477.2561 3415.78660
477.4663 3274.98875
477.6765 3285.12619
477.8867 3304.70477
478.0969 3293.17471
478.3071 3273.41181
478.5173 3364.93553
478.7274 3343.98481
478.9375 3394.93828
479.1477 3378.45213
479.3578 3501.59649
479.5679 3450.02864
479.7779 3497.80775
479.9880 3488.98100
480.1980 3518.57415
480.4081 3527.07322
480.6181 3425.39157
480.8281 3522.05570
481.0381 3457.50372
481.2480 3461.57918
481.4580 3542.47395
481.6679 3514.49869
481.8778 3459.61313
482.0877 3469.44338
482.2976 3382.19991
482.5075 3470.89744
482.7174 3548.53593
482.9272 3611.47001
483.1371 3478.47492
483.3469 3519.68005
483.5567 3639.62958
483.7665 3541.94147
483.9762 3596.90895
484.1860 3734.12286
484.3957 3714.89243
484.6055 3575.99919
484.8152 3655.80854
485.0249 3770.16711
485.2346 3746.16492
485.4442 3744.23983
485.6539 3798.36764
485.8635 3761.66804
486.0732 3640.89932
486.2828 3682.63693
486.4924 3668.93602
486.7019 3781.36950
486.9115 3748.58152
487.1210 3751.79683
487.3306 3881.37181
487.5401 3844.75413
487.7496 3895.97383
487.9591 3949.54869
488.1686 3901.64670
488.3780 3837.66816
488.5875 3946.31290
488.7969 4032.69623
489.0063 4006.44127
489.2157 4070.29693
489.4251 3994.13297
489.6345 3966.42396
489.8438 4086.78308
490.0531 3904.69818
490.2625 3984.38464
490.4718 4067.92129
490.6811 4142.77455
490.8903 4152.80959
491.0996 4182.79185
491.3089 4186.82635
491.5181 4233.04901
491.7273 4230.28425
491.9365 4222.76820
492.1457 4297.49858
492.3549 4312.96075
492.5640 4222.13333
492.7732 4305.58806
492.9823 4353.67437
493.1914 4471.82168
493.4005 4446.01728
493.6096 4414.17136
493.8187 4380.23652
494.0277 4472.10840
494.2368 4467.09088
494.4458 4514.31704
494.6548 4560.21202
494.8638 4622.73650
495.0728 4593.53247
495.2817 4603.95663
495.4907 4628.51177
495.6996 4674.50915
495.9085 4680.57114
496.1174 4746.76149
496.3263 4740.92478
496.5352 4763.14524
496.7440 4857.86379
496.9529 4871.74902
497.1617 4830.78965
497.3705 4856.40974
497.5793 4974.51609
497.7881 4860.73095
497.9969 4958.09138
498.2056 5028.62343
498.4144 5037.20442
498.6231 5099.56507
498.8318 5107.81838
499.0405 5140.05341
499.2492 5105.81137
499.4578 5165.18198
499.6665 5165.93973
499.8751 5279.39720
500.0837 5290.98870
500.2923 5301.80198
500.5009 5332.13240
500.7095 5455.05148
500.9180 5397.36020
501.1266 5478.66456
501.3351 5498.01787
501.5436 5574.36614
501.7521 5555.50435
501.9606 5633.06093
502.1691 5698.10441
502.3775 5654.95371
502.5860 5713.68945
502.7944 5745.65825
503.0028 5794.54326
503.2112 5813.48697
503.4196 5856.43288
503.6279 5912.15811
503.8363 5864.46091
504.0446 6007.38865
504.2529 5982.38295
504.4612 6037.20708
504.6695 6120.14981
504.8778 6128.93560
505.0860 6130.16438
505.2943 6162.44037
505.5025 6252.03900
505.7107 6260.06704
505.9189 6342.19058
506.1271 6387.88077
506.3353 6372.82820
506.5434 6350.81253
506.7516 6463.16410
506.9597 6518.76645
507.1678 6597.69517
507.3759 6558.61992
507.5840 6616.96655
507.7920 6677.38163
508.0001 6685.26631
508.2081 6808.10347
508.4161 6785.08431
508.6241 6985.64189
508.8321 6945.62458
509.0401 6899.91391
509.2480 7038.60236
509.4560 7002.61955
509.6639 7106.96355
509.8718 7138.54323
510.0797 7249.52266
510.2876 7255.97376
510.4955 7362.79581
510.7033 7387.71959
510.9112 7441.68357
511.1190 7546.82628
511.3268 7503.20455
511.5346 7566.54822
511.7424 7610.49763
511.9501 7736.01764
512.1579 7777.46852
512.3656 7789.51058
512.5733 7773.59786
512.7810 7894.48946
512.9887 7999.71409
513.1964 7999.52977
513.4040 8038.48214
513.6117 8091.60645
513.8193 8202.70875
514.0269 8197.95747
514.2345 8343.01509
514.4421 8288.90776
514.6497 8296.21901
514.8572 8494.60574
515.0647 8528.04907
515.2723 8595.20197
515.4798 8645.04952
515.6873 8716.70795
515.8947 8783.61509
516.1022 8766.76031
516.3097 8837.84530
516.5171 8951.34373
516.7245 9005.96306
516.9319 9100.39490
517.1393 9118.17127
517.3467 9119.27717
517.5540 9144.59006
517.7614 9383.46514
517.9687 9390.32583
518.1760 9428.35661
518.3833 9562.19137
518.5906 9591.02677
518.7978 9743.66188
519.0051 9720.23312
519.2123 9875.71491
519.4196 9703.39882
519.6268 9888.51471
519.8340 9926.34069
520.0411 9977.68327
520.2483 10203.32847
520.4554 10164.90857
520.6626 10425.63548
520.8697 10361.98461
521.0768 10587.07685
521.2839 10521.02986
521.4909 10549.31231
521.6980 10715.56641
521.9050 10864.94525
522.1121 10808.95379
522.3191 11024.44106
522.5261 11017.04789
522.7331 11061.30450
522.9400 11250.63921
523.1470 11300.20005
523.3539 11412.67449
523.5608 11402.63945
523.7677 11437.31156
523.9746 11555.31552
524.1815 11848.56416
524.3884 11744.79359
524.5952 11748.64377
524.8020 12037.36640
525.0089 11971.85188
525.2157 12088.19699
525.4225 12155.18604
525.6292 12208.94522
525.8360 12297.04884
526.0427 12392.42274
526.2494 12561.19585
526.4562 12549.25619
526.6629 12627.77531
526.8695 12658.04429
527.0762 12889.77195
527.2829 12988.62741
527.4895 13116.37970
527.6961 13219.37205
527.9027 13341.06235
528.1093 13395.78407
528.3159 13459.49638
528.5224 13406.12632
528.7290 13768.78062
528.9355 13599.67984
529.1420 13988.15903
529.3485 13886.39547
529.5550 14102.88624
529.7615 14033.19387
529.9680 14190.58027
530.1744 14224.24887
530.3808 14408.44318
530.5872 14354.70448
530.7936 14516.78073
531.0000 14589.05355
531.2064 14720.24642
531.4127 14839.88876
531.6191 14956.02907
531.8254 15072.68137
532.0317 15253.98804
532.2380 15174.28110
532.4443 15358.59828
532.6505 15172.60176
532.8568 15465.60465
533.0630 15784.67818
533.2692 15686.96959
533.4754 15861.66133
533.6816 16040.36708
533.8878 15966.70164
534.0939 16278.27961
534.3001 16295.17535
534.5062 16369.06606
534.7123 16308.58955
534.9184 16405.51991
535.1245 16571.65113
535.3306 16612.91770
535.5366 16920.82980
535.7426 16952.16373
535.9487 17042.27435
536.1547 17022.69577
536.3607 17297.24646
536.5666 17208.22126
536.7726 17307.26103
536.9785 17547.09865
537.1845 17734.73355
537.3904 17629.77515
537.5963 17659.57309
537.8022 17882.88360
538.0080 18018.41818
538.2139 18145.78135
538.4197 18250.00248
538.6256 18222.98978
538.8314 18267.16446
539.0372 18447.22187
539.2430 18805.24777
539.4487 18629.79829
539.6545 18918.70524
539.8602 18840.63667
540.0659 19039.20772
540.2716 19447.47029
540.4773 19488.08151
540.6830 19600.51500
540.8887 19748.13258
541.0943 19499.40678
541.2999 19604.44710
541.5056 19657.20277
541.7112 19915.04204
541.9167 19797.61151
542.1223 19856.96164
542.3279 20250.68363
542.5334 20309.89041
542.7389 20522.10093
542.9444 20584.93261
543.1499 20686.06131
543.3554 20643.46356
543.5609 20988.75109
543.7663 21004.86861
543.9718 20864.41891
544.1772 21028.68648
544.3826 21034.95327
544.5880 21648.19703
544.7934 21495.56192
544.9987 21568.69488
545.2041 21955.10563
545.4094 21894.34239
545.6147 21870.70883
545.8200 22204.36390
546.0253 22175.65138
546.2306 22482.90813
546.4358 22253.04412
546.6411 22623.29639
546.8463 22459.64321
547.0515 22769.95143
547.2567 22915.00906
547.4619 23019.43499
547.6670 23093.03898
547.8722 23232.28038
548.0773 23503.98439
548.2824 23490.11964
548.4876 23617.70810
548.6926 23739.17312
548.8977 23831.78227
549.1028 23962.50412
549.3078 24146.00212
549.5129 24131.31818
549.7179 24256.18283
549.9229 24397.20596
550.1279 24307.11582
550.3328 24706.46972
550.5378 24388.48162
550.7427 24722.52580
550.9476 24910.26309
551.1526 24384.46760
551.3575 24988.37262
551.5623 25070.78288
551.7672 24943.58355
551.9720 25049.38161
552.1769 25175.24977
552.3817 25355.81918
552.5865 25268.32995
552.7913 25515.49930
552.9961 25328.92935
553.2008 25592.03189
553.4056 25865.47668
553.6103 25794.00257
553.8150 26047.95069
554.0197 26080.92299
554.2244 26031.25975
554.4291 26083.64679
554.6337 26504.05381
554.8384 26292.99015
555.0430 26519.24974
555.2476 26302.20601
555.4522 26315.84549
555.6568 26657.18044
555.8613 26809.87699
556.0659 26943.93702
556.2704 26628.59079
556.4750 26989.58625
556.6795 27156.51618
556.8839 26877.09132
557.0884 27360.53482
557.2929 27306.48893
557.4973 27101.03670
557.7018 27222.80893
557.9062 27418.20562
558.1106 27409.21504
558.3150 27230.42737
558.5193 27623.96505
558.7237 27682.08640
558.9280 27406.79844
559.1323 27676.00393
559.3367 27542.70165
559.5410 27773.36437
559.7452 27522.79539
559.9495 27871.70782
560.1537 27850.26559
560.3580 27766.07360
560.5622 28040.46045
560.7664 28187.34077
560.9706 28141.73250
561.1748 28299.24178
561.3789 28316.44472
561.5831 28299.89713
561.7872 28217.89646
561.9913 28513.97130
562.1954 28435.02211
562.3995 28589.45943
562.6036 28566.89082
562.8076 28368.83176
563.0117 28679.36526
563.2157 28546.14489
563.4197 28801.42420
563.6237 28999.48326
563.8277 28673.56951
564.0316 28488.63793
564.2356 28845.45553
564.4395 28836.77214
564.6434 29038.06699
564.8473 29238.84984
565.0512 29150.25472
565.2551 29176.57111
565.4590 29228.67144
565.6628 29421.65153
565.8666 29647.01002
566.0705 29446.26812
566.2743 29433.65263
566.4780 29475.36975
566.6818 29415.71242
566.8856 29931.73911
567.0893 29532.91768
567.2930 29705.09041
567.4967 29452.45298
567.7004 29702.53045
567.9041 29862.72256
568.1078 29848.77590
568.3114 30094.18399
568.5151 29995.57430
568.7187 29620.61170
568.9223 29857.29545
569.1259 30012.47004
569.3295 30352.69909
569.5330 30308.68824
569.7366 30342.90980
569.9401 30460.31985
570.1436 30475.61817
570.3471 30565.89263
570.5506 30536.77052
570.7541 30544.83952
570.9575 30504.45357
571.1609 30190.09037
571.3644 30746.40060
571.5678 30682.34014
571.7712 31093.98186
571.9746 30988.40907
572.1779 30733.58032
572.3813 30646.35733
572.5846 30855.12726
572.7879 30756.70188
572.9912 31368.22535
573.1945 31183.92864
573.3978 30805.19778
573.6010 31154.64269
573.8043 31733.50106
574.0075 30930.75875
574.2107 31121.11744
574.4139 31083.35290
574.6171 31246.76033
574.8203 31017.63358
575.0234 31420.20280
575.2266 30905.89641
575.4297 31078.35585
575.6328 31197.71147
575.8359 31510.82542
576.0390 30848.59424
576.2420 30974.36000
576.4451 30731.73714
576.6481 31105.43000
576.8512 31529.76913
577.0542 30901.26800
577.2571 31365.99307
577.4601 31362.55248
577.6631 31251.77785
577.8660 31114.68682
578.0689 31006.65647
578.2719 31205.71903
578.4748 30989.14634
578.6776 30996.86718
578.8805 31066.98963
579.0834 30597.28800
579.2862 31028.77453
579.4890 31415.04192
579.6918 31224.56034
579.8946 30937.98808
580.0974 31351.37057
580.3002 31038.70718
580.5029 30848.77856
580.7057 31274.87894
580.9084 30773.63858
581.1111 31346.59880
581.3138 31127.01559
581.5164 30865.65382
581.7191 30747.09691
581.9217 30864.83463
582.1244 30905.67113
582.3270 30907.47334
582.5296 30842.36842
582.7322 31121.62943
582.9347 30967.15115
583.1373 30673.98442
583.3398 30949.27238
583.5424 30760.44967
583.7449 30686.02648
583.9474 30532.59266
584.1498 30438.83665
584.3523 30882.63148
584.5548 30443.50602
584.7572 30620.79868
584.9596 30816.42065
585.1620 31352.27167
585.3644 30463.61708
585.5668 30578.91772
585.7691 30962.17459
585.9715 30736.28363
586.1738 31002.86773
586.3761 31010.89576
586.5784 31209.87641
586.7807 31096.99237
586.9830 31005.14097
587.1852 31001.33175
587.3875 30720.63715
587.5897 31249.79132
587.7919 30971.73860
587.9941 30617.21473
588.1963 30757.64395
588.3984 31169.22423
588.6006 30634.74534
588.8027 31187.10300
589.0048 30829.50717
589.2069 30999.28378
589.4090 31002.08950
589.6111 31190.52310
589.8131 31078.68353
590.0152 31292.92154
590.2172 31127.46615
590.4192 31532.53388
590.6212 31259.43725
590.8232 30984.84560
591.0252 31377.35929
591.2271 31491.96362
591.4291 31478.52895
591.6310 31301.99404
591.8329 31324.03019
592.0348 31634.85040
592.2367 31648.32604
592.4385 31977.53701
592.6404 32072.37845
592.8422 32133.69463
593.0440 32232.16097
593.2458 32485.26943
593.4476 32605.85383
593.6494 32633.64476
593.8512 32834.69385
594.0529 33155.36480
594.2546 33050.57024
594.4563 32944.40354
594.6580 32696.64028
594.8597 32677.57369
595.0614 32777.55553
595.2630 33047.00677
595.4647 32963.28581
595.6663 32671.98274
595.8679 33005.90404
596.0695 33488.93795
596.2711 33310.80563
596.4727 33386.45760
596.6742 33678.53890
596.8757 33787.65467
597.0773 33760.51909
597.2788 33412.24152
597.4802 33756.95562
597.6817 34172.03793
597.8832 33848.68414
598.0846 34187.74585
598.2860 34158.58277
598.4875 33892.12156
598.6889 34445.66703
598.8902 34515.07269
599.0916 34532.82858
599.2930 34176.91209
599.4943 34691.85336
599.6956 34711.10426
599.8969 34535.96198
600.0982 34201.20100
600.2995 34386.86985
600.5008 35131.24505
600.7020 34484.14837
600.9032 35039.51653
601.1045 34839.88054
601.3057 34520.25405
601.5068 35180.68302
601.7080 35173.20793
601.9092 35026.22521
602.1103 35579.19726
602.3115 35466.21082
602.5126 35735.58015
602.7137 35600.94668
602.9147 35595.47861
603.1158 35744.85745
603.3169 35933.29105
603.5179 35799.78397
603.7189 35590.82972
603.9199 35845.47415
604.1209 35884.01693
604.3219 35922.04770
604.5229 35978.91980
604.7238 36135.79420
604.9247 36171.89989
605.1257 36326.19386
605.3266 36529.72099
605.5275 36156.54013
605.7283 36332.48112
605.9292 36485.34151
606.1300 35948.44602
606.3309 36181.15671
606.5317 36448.96958
606.7325 36584.50416
606.9332 36611.45543
607.1340 36893.76792
607.3348 36741.82912
607.5355 36170.65063
607.7362 37156.19463
607.9369 36506.10791
608.1376 36761.63297
608.3383 36504.05994
608.5390 37336.51828
608.7396 36967.33095
608.9402 37514.58916
609.1409 37461.01430
609.3415 37115.66533
609.5421 37026.96780
609.7426 37375.90072
609.9432 36932.14685
610.1437 36824.62849
610.3443 37705.35745
610.5448 37517.16960
610.7453 37803.00460
610.9457 37418.53943
611.1462 37630.60659
611.3467 37525.27956
611.5471 37889.67464
611.7475 37427.57097
611.9479 38164.04101
612.1483 37611.68336
612.3487 38133.36244
612.5491 38028.60884
612.7494 38621.80299
612.9497 37919.14491
613.1501 38348.56300
613.3504 38073.93039
613.5506 38727.27338
613.7509 38416.67844
613.9512 38327.12077
614.1514 38489.07413
614.3516 38848.32881
614.5519 38713.96158
614.7521 38845.44118
614.9522 38487.88631
615.1524 38573.22517
615.3526 39014.89011
615.5527 39638.96763
615.7528 39200.64088
615.9529 39166.60364
616.1530 39544.06476
616.3531 39587.99369
616.5532 39479.84046
616.7532 38991.48183
616.9532 39397.45067
617.1533 39163.96176
617.3533 39559.54740
617.5532 39280.02015
617.7532 39535.79096
617.9532 38691.98688
618.1531 39672.20616
618.3530 39127.38503
618.5530 39474.72053
618.7528 39637.22685
618.9527 39700.28381
619.1526 39279.16000
619.3524 39306.09079
619.5523 39553.11678
619.7521 39735.38600
619.9519 39764.36475
620.1517 39637.43165
620.3515 39975.83801
620.5512 40304.63939
620.7510 40073.19844
620.9507 39754.84170
621.1504 39853.65619
621.3501 39935.49302
621.5498 40181.67935
621.7495 40270.23352
621.9492 39861.84807
622.1488 39710.70797
622.3484 39782.01825
622.5480 39766.59704
622.7476 40464.36047
622.9472 39742.08285
623.1468 39999.65588
623.3463 41075.98634
623.5459 40804.22089
623.7454 40484.04145
623.9449 40533.47942
624.1444 40530.38699
624.3439 40875.85883
624.5433 40703.48130
624.7428 40506.13904
624.9422 40570.21998
625.1416 40761.45930
625.3410 40731.45656
625.5404 40615.60297
625.7398 40616.99558
625.9391 40796.93012
626.1385 40305.37666
626.3378 40353.23769
626.5371 41072.11568
626.7364 40446.85034
626.9357 40875.92027
627.1350 40843.31661
627.3342 40497.61949
627.5335 40329.58365
627.7327 40593.07531
627.9319 40559.24287
628.1311 41558.59018
628.3303 40772.21114
628.5294 40996.77091
628.7286 41164.00804
628.9277 41597.46062
629.1268 41255.71608
629.3259 41942.66624
629.5250 41849.81133
629.7241 41742.45681
629.9231 41030.17328
630.1222 41784.54257
630.3212 41630.67868
630.5202 41244.94376
630.7192 41766.64332
630.9182 41197.63568
631.1171 41523.01696
631.3161 41295.07804
631.5150 41107.79130
631.7140 41375.97280
631.9129 41585.82816
632.1118 42025.07650
632.3106 41746.83946
632.5095 41544.45919
632.7083 41473.00556
632.9072 41590.47705
633.1060 41637.10930
633.3048 41740.87987
633.5036 41216.27220
633.7023 41579.00842
633.9011 42015.73776
634.0998 41815.48738
634.2986 41913.54412
634.4973 41758.61528
634.6960 41851.85930
634.8947 41744.97581
635.0933 42036.42225
635.2920 41687.67365
635.4906 41362.88628
635.6892 42151.84576
635.8878 42233.41636
636.0864 42267.92463
636.2850 41904.38970
636.4836 41951.88210
636.6821 42050.14364
636.8806 42203.88465
637.0792 42131.32512
637.2777 42141.42160
637.4761 42202.06196
637.6746 41988.47930
637.8731 42335.50760
638.0715 41773.97505
638.2699 42514.80727
638.4683 42175.80700
638.6667 41380.49881
638.8651 42199.68631
639.0635 42420.00679
639.2618 42419.65864
639.4602 42366.43193
639.6585 42241.32152
639.8568 42337.84229
640.0551 42472.16856
640.2534 42358.97732
640.4516 42093.97017
640.6499 42332.29229
640.8481 43049.83910
641.0463 42797.28360
641.2445 43022.25296
641.4427 42882.86821
641.6409 42657.40733
641.8390 42889.85178
642.0372 43216.35944
642.2353 43048.09833
642.4334 42511.38716
642.6315 42737.52387
642.8296 42744.30264
643.0277 42521.93420
643.2257 43202.06462
643.4237 43250.27380
643.6218 43160.36797
643.8198 42884.69090
644.0178 43039.90645
644.2157 42968.06371
644.4137 42879.59146
644.6116 43544.95603
644.8096 43867.14247
