# Averages = 100
# wavelength [µm]	intensity
446.8250 14.33578
447.0374 36746.70328
447.2498 1228.59693
447.4621 1231.42313
447.6745 1228.61741
447.8868 1242.44120
448.0992 1243.85430
448.3115 1236.56353
448.5238 1247.35633
448.7360 1239.26685
448.9483 1248.27791
449.1606 1239.92220
449.3728 1262.26554
449.5850 1235.64195
449.7972 1251.82090
450.0094 1233.63494
450.2216 1252.10761
450.4337 1250.08013
450.6459 1744.70554
450.8580 2110.49324
451.0701 2160.07456
451.2822 2175.06569
451.4943 2163.04411
451.7064 2149.48656
451.9184 2140.78269
452.1305 2247.01083
452.3425 2334.25430
452.5545 2237.81545
452.7665 2249.91895
452.9785 2339.98861
453.1905 2373.47290
453.4024 2341.23787
453.6143 2453.48704
453.8263 2438.78263
454.0382 2641.44961
454.2501 2430.61123
454.4619 2405.93321
454.6738 2555.25061
454.8856 2683.43297
455.0975 2462.02707
455.3093 2462.08851
455.5211 2540.97627
455.7329 2512.48902
455.9446 2552.19914
456.1564 2577.22531
456.3681 2674.81102
456.5798 2781.30540
456.7916 2694.77872
457.0033 2670.81749
457.2149 2648.26935
457.4266 2689.18777
457.6382 2730.04474
457.8499 2700.88167
458.0615 2817.49301
458.2731 2710.54808
458.4847 2846.16457
458.6963 2936.88959
458.9078 2959.92923
459.1194 3138.92170
459.3309 3161.24456
459.5424 2974.67461
459.7539 2881.28723
459.9654 2910.38887
460.1769 2960.46171
460.3883 2921.26358
460.5998 2804.57032
460.8112 2783.06665
461.0226 2835.76089
461.2340 2935.82464
461.4454 2901.54165
461.6567 2878.37912
461.8681 2886.59147
462.0794 2840.67601
462.2907 2969.41133
462.5020 3236.97845
462.7133 3331.28741
462.9246 3084.34334
463.1359 2945.98257
463.3471 2822.85869
463.5583 2883.92911
463.7696 3289.63172
463.9808 3124.07393
464.1919 3058.19078
464.4031 3037.05574
464.6143 3061.67232
464.8254 2979.20062
465.0365 2930.43848
465.2476 3210.88733
465.4587 3382.32279
465.6698 2960.50267
465.8809 3018.64450
466.0919 3017.60003
466.3030 3072.05552
466.5140 3093.12912
466.7250 3026.11958
466.9360 3155.77649
467.1469 3094.66510
467.3579 2883.33520
467.5688 2886.40716
467.7798 3125.91710
467.9907 3249.28674
468.2016 3132.28628
468.4125 3081.02563
468.6233 2943.50453
468.8342 2962.14104
469.0450 3134.12946
469.2559 3247.70980
469.4667 3203.94471
469.6775 2946.35120
469.8882 3121.39109
470.0990 3080.45220
470.3098 3361.47447
470.5205 3190.63291
470.7312 3253.91515
470.9419 3481.87455
471.1526 3379.41467
471.3633 3085.16252
471.5739 3117.90954
471.7846 3112.11379
471.9952 3024.82936
472.2058 3154.09715
472.4164 3130.52503
472.6270 3102.85697
472.8376 3244.74025
473.0481 3423.87607
473.2587 3512.04113
473.4692 3417.24066
473.6797 3302.06289
473.8902 3053.56237
474.1007 3032.38637
474.3111 3066.21881
474.5216 2992.88105
474.7320 3113.91600
474.9424 3271.36384
475.1528 3338.92633
475.3632 3201.75338
475.5736 3162.88294
475.7840 3163.94788
475.9943 3201.69195
476.2046 3235.25815
476.4149 3296.22618
476.6252 3321.96915
476.8355 3423.69176
477.0458 3515.52268
477.2561 3502.45664
477.4663 3328.19497
477.6765 3351.43942
477.8867 3377.85822
478.0969 3363.78867
478.3071 3350.43592
478.5173 3455.39431
478.7274 3409.80653
478.9375 3470.42640
479.1477 3448.02163
479.3578 3585.82944
479.5679 3531.31252
479.7779 3574.77041
479.9880 3567.29533
480.1980 3614.05045
480.4081 3608.88957
480.6181 3483.43101
480.8281 3621.42314
481.0381 3549.12984
481.2480 3539.66823
481.4580 3627.60801
481.6679 3581.61063
481.8778 3537.37450
482.0877 3552.32468
482.2976 3464.67161
482.5075 3542.24867
482.7174 3631.92922
482.9272 3690.37825
483.1371 3568.72890
483.3469 3625.00709
483.5567 3745.46861
483.7665 3619.43661
483.9762 3675.16184
484.1860 3819.01117
484.3957 3814.87427
484.6055 3670.51295
484.8152 3752.51362
485.0249 3872.60651
485.2346 3848.48144
485.4442 3852.94601
485.6539 3881.55613
485.8635 3865.86869
486.0732 3728.16327
486.2828 3777.37596
486.4924 3770.63814
486.7019 3896.50630
486.9115 3850.97996
487.1210 3845.81908
487.3306 3983.15586
487.5401 3951.24851
487.7496 4009.20602
487.9591 4038.45102
488.1686 4006.11359
488.3780 3949.67157
488.5875 4044.00101
488.7969 4141.54576
489.0063 4128.09061
489.2157 4162.29169
489.4251 4090.98142
489.6345 4070.78844
489.8438 4189.50919
490.0531 4007.87484
490.2625 4091.26813
490.4718 4182.01363
490.6811 4239.27483
490.8903 4258.64862
491.0996 4278.35008
491.3089 4296.29028
491.5181 4364.26237
491.7273 4356.31625
491.9365 4338.25316
492.1457 4427.44220
492.3549 4437.55917
492.5640 4350.04946
492.7732 4425.51711
492.9823 4471.20729
493.1914 4600.37268
493.4005 4569.75555
493.6096 4537.43860
493.8187 4493.98071
494.0277 4600.90515
494.2368 4589.86660
494.4458 4645.48943
494.6548 4690.01228
494.8638 4741.62109
495.0728 4730.97165
495.2817 4731.31980
495.4907 4771.07088
495.6996 4789.01108
495.9085 4808.20055
496.1174 4883.23813
496.3263 4865.99423
496.5352 4891.61432
496.7440 4984.46922
496.9529 5034.97213
497.1617 4954.97847
497.3705 4992.90685
497.5793 5127.62224
497.7881 5014.57436
497.9969 5107.69550
498.2056 5166.22645
498.4144 5199.36258
498.6231 5265.08190
498.8318 5261.00644
499.0405 5291.82837
499.2492 5269.77175
499.4578 5310.15769
499.6665 5316.17872
499.8751 5461.93266
500.0837 5453.24927
500.2923 5474.28191
500.5009 5494.80255
500.7095 5614.01482
500.9180 5561.23866
501.1266 5643.01405
501.3351 5657.12456
501.5436 5742.48390
501.7521 5729.49977
501.9606 5815.49398
502.1691 5849.44930
502.3775 5814.87959
502.5860 5880.00500
502.7944 5929.32008
503.0028 5986.31505
503.2112 6000.46652
503.4196 6040.81150
503.6279 6094.32493
503.8363 6044.68216
504.0446 6212.49272
504.2529 6175.26065
504.4612 6240.69325
504.6695 6347.14667
504.8778 6341.08468
505.0860 6367.27820
505.2943 6364.65680
505.5025 6453.98920
505.7107 6489.97201
505.9189 6562.24483
506.1271 6602.30310
506.3353 6596.26159
506.5434 6566.95515
506.7516 6684.52904
506.9597 6744.49357
507.1678 6806.54702
507.3759 6768.53672
507.5840 6841.97688
507.7920 6911.38254
508.0001 6915.74471
508.2081 7063.23942
508.4161 7035.98096
508.6241 7198.83543
508.8321 7182.43120
509.0401 7142.63917
509.2480 7262.28150
509.4560 7284.56340
509.6639 7357.28677
509.8718 7365.88824
510.0797 7495.19699
510.2876 7515.92243
510.4955 7601.95760
510.7033 7652.74723
510.9112 7697.31103
511.1190 7793.99563
511.3268 7748.57168
511.5346 7833.21423
511.7424 7886.78910
511.9501 7993.14011
512.1579 8017.03991
512.3656 8041.43122
512.5733 8037.00760
512.7810 8166.60307
512.9887 8267.50649
513.1964 8297.59115
513.4040 8347.27487
513.6117 8402.44715
513.8193 8493.84799
514.0269 8528.00811
514.2345 8630.48847
514.4421 8607.08018
514.6497 8587.66544
514.8572 8776.46768
515.0647 8846.59013
515.2723 8884.72331
515.4798 8927.68969
515.6873 9036.04772
515.8947 9113.50190
516.1022 9073.34123
516.3097 9160.83045
516.5171 9285.83847
516.7245 9350.28804
516.9319 9424.64979
517.1393 9463.33592
517.3467 9461.24699
517.5540 9467.94385
517.7614 9709.05121
517.9687 9718.20563
518.1760 9753.61501
518.3833 9909.38351
518.5906 9910.01838
518.7978 10090.11675
519.0051 10052.27029
519.2123 10238.00058
519.4196 10053.54003
519.6268 10228.57992
519.8340 10303.88373
520.0411 10314.49221
520.2483 10582.48940
520.4554 10549.23039
520.6626 10811.51375
520.8697 10783.66137
521.0768 10980.12301
521.2839 10930.60313
521.4909 10963.12487
521.6980 11135.56384
521.9050 11314.47439
522.1121 11221.78333
522.3191 11499.99988
522.5261 11454.80121
522.7331 11526.23436
522.9400 11725.93179
523.1470 11737.62570
523.3539 11855.30198
523.5608 11847.00771
523.7677 11868.18370
523.9746 12025.83634
524.1815 12302.04588
524.3884 12196.37070
524.5952 12220.70056
524.8020 12499.79775
525.0089 12436.10592
525.2157 12570.37075
525.4225 12644.89633
525.6292 12678.21678
525.8360 12764.14955
526.0427 12871.91367
526.2494 13058.01259
526.4562 13019.32646
526.6629 13162.66379
526.8695 13137.08466
527.0762 13423.86172
527.2829 13469.63383
527.4895 13578.74960
527.6961 13697.32699
527.9027 13853.66893
528.1093 13898.94952
528.3159 13931.16406
528.5224 13880.53828
528.7290 14302.87039
528.9355 14126.92940
529.1420 14518.25527
529.3485 14414.75093
529.5550 14612.62567
529.7615 14562.06132
529.9680 14747.48441
530.1744 14748.05784
530.3808 15000.63383
530.5872 14950.60195
530.7936 15069.65037
531.0000 15155.50122
531.2064 15347.64165
531.4127 15439.30873
531.6191 15552.39757
531.8254 15647.15708
532.0317 15883.14452
532.2380 15821.27538
532.4443 15904.87347
532.6505 15759.30385
532.8568 16062.56706
533.0630 16363.45463
533.2692 16272.48386
533.4754 16437.44774
533.6816 16649.18723
533.8878 16526.20671
534.0939 16907.84568
534.3001 16942.41540
534.5062 17036.97011
534.7123 16951.16022
534.9184 17076.41399
535.1245 17225.89523
535.3306 17218.85022
535.5366 17605.79343
535.7426 17628.66924
535.9487 17684.88599
536.1547 17661.04763
536.3607 17968.20198
536.5666 17882.88360
536.7726 18004.49199
536.9785 18223.46081
537.1845 18427.35658
537.3904 18293.68566
537.5963 18368.33412
537.8022 18577.51365
538.0080 18773.13562
538.2139 18836.35642
538.4197 18958.53823
538.6256 18930.52202
538.8314 18988.58193
539.0372 19121.43367
539.2430 19512.98481
539.4487 19334.66817
539.6545 19672.60350
539.8602 19562.05414
540.0659 19771.84806
540.2716 20236.61409
540.4773 20285.47862
540.6830 20360.74147
540.8887 20493.20409
541.0943 20253.36647
541.2999 20391.19477
541.5056 20420.56264
541.7112 20695.99396
541.9167 20608.23850
542.1223 20639.83866
542.3279 21057.54236
542.5334 21119.16574
542.7389 21322.83623
542.9444 21403.48524
543.1499 21488.70122
543.3554 21435.86363
543.5609 21818.38323
543.7663 21857.39704
543.9718 21728.35453
544.1772 21876.46363
544.3826 21937.98461
544.5880 22539.65735
544.7934 22387.12463
544.9987 22453.82698
545.2041 22829.07629
545.4094 22771.75365
545.6147 22813.10213
545.8200 23146.90056
546.0253 23102.93067
546.2306 23375.00332
546.4358 23197.30107
546.6411 23538.94322
546.8463 23356.46920
547.0515 23681.85048
547.2567 23837.04555
547.4619 23896.51856
547.6670 23965.69895
547.8722 24116.85952
548.0773 24456.08506
548.2824 24498.78521
548.4876 24585.12757
548.6926 24669.62677
548.8977 24797.27666
549.1028 24919.06936
549.3078 25123.76384
549.5129 25143.40386
549.7179 25280.20817
549.9229 25461.39196
550.1279 25336.22011
550.3328 25721.27920
550.5378 25397.27006
550.7427 25758.10168
550.9476 25917.59748
551.1526 25344.78062
551.3575 25935.64009
551.5623 26088.09088
551.7672 25973.30223
551.9720 26081.37354
552.1769 26209.94502
552.3817 26453.26419
552.5865 26290.67595
552.7913 26549.58016
552.9961 26397.00649
553.2008 26592.30079
553.4056 26932.36600
553.6103 26862.57122
553.8150 27098.41530
554.0197 27200.38367
554.2244 27044.34893
554.4291 27116.88798
554.6337 27565.51602
554.8384 27345.91233
555.0430 27558.65532
555.2476 27321.43910
555.4522 27352.62967
555.6568 27719.23655
555.8613 27859.80913
556.0659 27998.94812
556.2704 27725.76957
556.4750 28078.28643
556.6795 28306.57351
556.8839 27981.29463
557.0884 28514.17610
557.2929 28333.13566
557.4973 28205.42433
557.7018 28325.96777
557.9062 28507.92980
558.1106 28539.91907
558.3150 28392.99779
558.5193 28808.46921
558.7237 28861.85976
558.9280 28606.51901
559.1323 28862.90422
559.3367 28640.08522
559.5410 28911.27724
559.7452 28690.42429
559.9495 29010.41941
560.1537 28995.46924
560.3580 28948.16116
560.5622 29130.20510
560.7664 29405.02203
560.9706 29436.49931
561.1748 29540.04461
561.3789 29504.63523
561.5831 29505.22914
561.7872 29464.86367
561.9913 29714.75682
562.1954 29635.23420
562.3995 29807.83700
562.6036 29826.92407
562.8076 29629.37700
563.0117 29895.01903
563.2157 29772.55050
563.4197 29985.84645
563.6237 30210.57006
563.8277 29894.87567
564.0316 29733.84389
564.2356 30130.43304
564.4395 30135.14337
564.6434 30301.88898
564.8473 30505.19084
565.0512 30490.52738
565.2551 30415.24405
565.4590 30546.43693
565.6628 30761.39173
565.8666 30968.05226
566.0705 30692.12943
566.2743 30680.64032
566.4780 30811.30073
566.6818 30722.41889
566.8856 31236.64336
567.0893 30862.62283
567.2930 30994.43010
567.4967 30719.51077
567.7004 30910.15618
567.9041 31022.99926
568.1078 31058.28576
568.3114 31252.00313
568.5151 31224.06883
568.7187 30910.17666
568.9223 31088.04275
569.1259 31281.67819
569.3295 31665.93857
569.5330 31560.05858
569.7366 31581.74657
569.9401 31651.31607
570.1436 31760.88240
570.3471 31850.54247
570.5506 31825.92589
570.7541 31762.58221
570.9575 31711.03484
571.1609 31426.92014
571.3644 32007.60120
571.5678 31952.46988
571.7712 32327.59631
571.9746 32208.40453
572.1779 31938.72801
572.3813 31837.49691
572.5846 32112.55959
572.7879 32008.35894
572.9912 32643.39309
573.1945 32521.62087
573.3978 32107.54207
573.6010 32454.20174
573.8043 32973.58710
574.0075 32120.87435
574.2107 32270.13031
574.4139 32261.18069
574.6171 32411.48111
574.8203 32212.25471
575.0234 32651.48257
575.2266 32117.35184
575.4297 32231.79233
575.6328 32406.77078
575.8359 32770.36716
576.0390 32121.50922
576.2420 32270.00743
576.4451 31986.85527
576.6481 32381.49885
576.8512 32845.50713
577.0542 32127.83744
577.2571 32587.95458
577.4601 32632.27262
577.6631 32513.92051
577.8660 32330.72970
578.0689 32224.31725
578.2719 32376.60420
578.4748 32202.03535
578.6776 32226.75433
578.8805 32313.95684
579.0834 31752.69052
579.2862 32294.23490
579.4890 32715.13344
579.6918 32444.69917
579.8946 32128.39039
580.0974 32569.01087
580.3002 32213.87261
580.5029 32126.34242
580.7057 32510.07033
580.9084 32037.97257
581.1111 32618.46931
581.3138 32359.68798
581.5164 32143.89352
581.7191 31944.46232
581.9217 32062.01572
582.1244 32130.19260
582.3270 32145.55237
582.5296 32057.94027
582.7322 32327.22768
582.9347 32212.43903
583.1373 31930.33133
583.3398 32222.82223
583.5424 31914.41862
583.7449 31824.90190
583.9474 31715.35605
584.1498 31662.80518
584.3523 32131.19611
584.5548 31766.59623
584.7572 31992.83534
584.9596 32204.92298
585.1620 32789.96622
585.3644 31890.21163
585.5668 31898.34206
585.7691 32191.14015
585.9715 32061.19654
586.1738 32336.95553
586.3761 32294.84929
586.5784 32493.74802
586.7807 32438.26854
586.9830 32430.50674
587.1852 32413.24237
587.3875 32074.93841
587.5897 32634.09532
587.7919 32384.48888
587.9941 32029.76022
588.1963 32148.84960
588.3984 32521.06792
588.6006 31962.73020
588.8027 32602.20844
589.0048 32254.01280
589.2069 32323.84853
589.4090 32404.06747
589.6111 32587.95458
589.8131 32515.96848
590.0152 32728.97771
590.2172 32630.59329
590.4192 32957.87918
590.6212 32619.47282
590.8232 32435.17611
591.0252 32806.16565
591.2271 32956.58895
591.4291 32887.42905
591.6310 32728.60907
591.8329 32718.84026
592.0348 33083.41966
592.2367 33090.79235
592.4385 33426.39299
592.6404 33490.94496
592.8422 33587.05613
593.0440 33685.72727
593.2458 33955.62907
593.4476 34109.75920
593.6494 34138.00069
593.8512 34292.99096
594.0529 34566.25143
594.2546 34454.73953
594.4563 34425.41262
594.6580 34162.78111
594.8597 34131.75438
595.0614 34227.82460
595.2630 34502.19097
595.4647 34446.03567
595.6663 34162.33056
595.8679 34537.96898
596.0695 35007.05623
596.2711 34778.19572
596.4727 34919.64892
596.6742 35177.44723
596.8757 35326.06832
597.0773 35194.01529
597.2788 34843.03441
597.4802 35217.44406
597.6817 35664.67947
597.8832 35427.56565
598.0846 35753.84803
598.2860 35630.92895
598.4875 35318.04028
598.6889 35881.35457
598.8902 35972.20246
599.0916 36077.85717
599.2930 35669.36932
599.4943 36224.81940
599.6956 36236.49283
599.8969 36029.99614
600.0982 35693.18720
600.2995 35817.66274
600.5008 36602.11669
600.7020 35963.43715
600.9032 36467.87234
601.1045 36284.08762
601.3057 35994.34100
601.5068 36706.44022
601.7080 36738.55237
601.9092 36387.61244
602.1103 36982.50640
602.3115 36820.61447
602.5126 37010.42022
602.7137 36866.96001
602.9147 36873.26775
603.1158 37114.23175
603.3169 37419.05142
603.5179 37256.07407
603.7189 37110.11534
603.9199 37291.40153
604.1209 37229.53239
604.3219 37215.23757
604.5229 37269.54970
604.7238 37563.92473
604.9247 37572.71052
605.1257 37732.88215
605.3266 37984.04504
605.5275 37536.68675
605.7283 37715.18770
605.9292 37921.56151
606.1300 37288.78013
606.3309 37489.13291
606.5317 37919.43163
606.7325 38035.18282
606.9332 37964.77365
607.1340 38229.90369
607.3348 38123.06116
607.5355 37604.33115
607.7362 38659.81329
607.9369 37884.41136
608.1376 38116.42574
608.3383 37874.08960
608.5390 38752.85251
608.7396 38363.36981
608.9402 39024.65892
609.1409 38950.95253
609.3415 38624.28103
609.5421 38504.14718
609.7426 38851.81036
609.9432 38305.33038
610.1437 38164.61445
610.3443 39011.87960
610.5448 38739.97079
610.7453 39113.66364
610.9457 38907.53559
611.1462 39063.30409
611.3467 38921.52322
611.5471 39281.74044
611.7475 38702.43152
611.9479 39531.89982
612.1483 38981.07815
612.3487 39560.38707
612.5491 39390.54902
612.7494 40019.27543
612.9497 39353.86990
613.1501 39776.61161
613.3504 39568.00551
613.5506 40278.99882
613.7509 39901.51722
613.9512 39752.77325
614.1514 39945.09800
614.3516 40419.32564
614.5519 40207.62711
614.7521 40374.35225
614.9522 40023.28944
615.1524 40006.63946
615.3526 40467.24811
615.5527 41017.16868
615.7528 40605.38360
615.9529 40655.80459
616.1530 41083.50239
616.3531 41063.10462
616.5532 40969.63532
616.7532 40608.41460
616.9532 40927.54957
617.1533 40691.50069
617.3533 41170.60250
617.5532 40731.76375
617.7532 40995.37829
617.9532 40187.61846
618.1531 41202.63273
618.3530 40665.34813
618.5530 40910.36711
618.7528 41038.54947
618.9527 41117.04811
619.1526 40700.06120
619.3524 40770.22461
619.5523 41063.02270
619.7521 41201.46539
619.9519 41226.96260
620.1517 41242.77292
620.3515 41545.97469
620.5512 41829.76172
620.7510 41608.76541
620.9507 41311.52323
621.1504 41376.62815
621.3501 41496.76200
621.5498 41684.47882
621.7495 41861.15708
621.9492 41415.12997
622.1488 41214.36759
622.3484 41214.94102
622.5480 41116.16749
622.7476 41879.34304
622.9472 41138.75658
623.1468 41378.38941
623.3463 42548.49635
623.5459 42172.73505
623.7454 41940.51587
623.9449 41937.64871
624.1444 41887.96499
624.3439 42322.62588
624.5433 42091.18493
624.7428 41837.35968
624.9422 41995.27855
625.1416 42095.38327
625.3410 42082.29675
625.5404 41969.84278
625.7398 41978.05514
625.9391 42234.78850
626.1385 41821.71320
626.3378 41965.35773
626.5371 42649.58409
626.7364 41917.92677
626.9357 42354.20556
627.1350 42325.00152
627.3342 41989.58520
627.5335 41801.88886
627.7327 41973.81584
627.9319 42028.80380
628.1311 43046.48043
628.3303 42324.67385
628.5294 42541.49230
628.7286 42643.91122
628.9277 42917.80656
629.1268 42613.66272
629.3259 43235.79466
629.5250 43204.97273
629.7241 43169.60431
629.9231 42381.09539
630.1222 43253.05904
630.3212 43103.61876
630.5202 42684.78867
630.7192 43228.01238
630.9182 42614.50238
631.1171 42853.84849
631.3161 42611.67619
631.5150 42535.18455
631.7140 42881.33223
631.9129 43000.95409
632.1118 43440.16147
632.3106 43343.84550
632.5095 43109.31211
632.7083 42977.58676
632.9072 43086.29295
633.1060 43244.25277
633.3048 43259.36678
633.5036 42745.79766
633.7023 43055.20478
633.9011 43532.44294
634.0998 43343.53830
634.2986 43578.35840
634.4973 43193.15595
634.6960 43414.25466
634.8947 43254.98413
635.0933 43557.71487
635.2920 43114.75971
635.4906 42768.42772
635.6892 43572.50121
635.8878 43592.34602
636.0864 43538.68924
636.2850 43254.82029
636.4836 43285.94942
636.6821 43347.08129
636.8806 43455.76699
637.0792 43460.00628
637.2777 43451.34337
637.4761 43493.85921
637.6746 43182.89563
637.8731 43592.59178
638.0715 43078.53114
638.2699 43737.93612
638.4683 43496.97212
638.6667 42731.46188
638.8651 43624.74489
639.0635 43798.16688
639.2618 43850.90208
639.4602 43733.22579
639.6585 43616.00006
639.8568 43815.30838
640.0551 43901.13875
640.2534 43720.75366
640.4516 43544.79219
640.6499 43712.54131
640.8481 44452.69770
641.0463 44201.26857
641.2445 44497.89637
641.4427 44268.33955
641.6409 44025.24566
641.8390 44272.84508
642.0372 44605.20993
642.2353 44477.06852
642.4334 43869.04708
642.6315 44191.39736
642.8296 44140.17766
643.0277 43929.46216
643.2257 44646.12834
643.4237 44641.80713
643.6218 44509.54931
643.8198 44251.87388
644.0178 44353.00258
644.2157 44304.54764
644.4137 44202.02632
644.6116 44977.65353
644.8096 45240.57175
