# Averages = 100
# wavelength [µm]	intensity
446.8250 14.33578
447.0374 36746.70328
447.2498 1230.99306
447.4621 1228.71981
447.6745 1234.10597
447.8868 1239.63548
448.0992 1238.44766
448.3115 1239.32829
448.5238 1244.77589
448.7360 1241.60153
448.9483 1242.93271
449.1606 1237.17792
449.3728 1263.04377
449.5850 1235.84674
449.7972 1245.39028
450.0094 1239.53309
450.2216 1257.61665
450.4337 1250.26444
450.6459 1759.10276
450.8580 2128.67920
451.0701 2162.90076
451.2822 2183.23709
451.4943 2171.97326
451.7064 2154.23785
451.9184 2145.71830
452.1305 2254.36304
452.3425 2350.57661
452.5545 2256.24717
452.7665 2267.30620
452.9785 2361.38989
453.1905 2392.23230
453.4024 2361.63564
453.6143 2467.26987
453.8263 2454.38815
454.0382 2654.37230
454.2501 2454.61343
454.4619 2426.78153
454.6738 2565.34710
454.8856 2694.28721
455.0975 2488.77354
455.3093 2486.64366
455.5211 2559.73566
455.7329 2529.54860
455.9446 2581.42365
456.1564 2577.69635
456.3681 2690.96950
456.5798 2792.65115
456.7916 2717.34734
457.0033 2695.61839
457.2149 2674.27855
457.4266 2713.18996
457.6382 2749.29565
457.8499 2727.91485
458.0615 2844.15756
458.2731 2734.14068
458.4847 2863.55183
458.6963 2964.33237
458.9078 2990.89452
459.1194 3158.21357
459.3309 3179.69676
459.5424 3014.05705
459.7539 2912.33444
459.9654 2930.45896
460.1769 2975.84195
460.3883 2956.26337
460.5998 2817.75924
460.8112 2806.31110
461.0226 2874.87709
461.2340 2965.86834
461.4454 2927.01838
461.6567 2897.73242
461.8681 2909.59016
462.0794 2868.75367
462.2907 3000.47902
462.5020 3259.38323
462.7133 3357.27613
462.9246 3117.27467
463.1359 2967.58864
463.3471 2832.38174
463.5583 2907.11212
463.7696 3326.26988
463.9808 3142.15749
464.1919 3080.41124
464.4031 3065.82970
464.6143 3099.68262
464.8254 3004.98455
465.0365 2969.55469
465.2476 3240.70575
465.4587 3419.73918
465.6698 2984.91445
465.8809 3050.83857
466.0919 3036.27751
466.3030 3094.70606
466.5140 3127.92411
466.7250 3058.51845
466.9360 3192.06649
467.1469 3116.33261
467.3579 2915.07872
467.5688 2903.63057
467.7798 3152.58165
467.9907 3260.32529
468.2016 3147.52317
468.4125 3118.91305
468.6233 2961.34233
468.8342 2994.76518
469.0450 3171.07481
469.2559 3277.97878
469.4667 3223.40041
469.6775 2974.16262
469.8882 3133.94514
470.0990 3098.92487
470.3098 3394.95876
470.5205 3213.91832
470.7312 3300.05588
470.9419 3508.96918
471.1526 3408.00432
471.3633 3114.48944
471.5739 3143.55011
471.7846 3135.66543
471.9952 3060.19778
472.2058 3186.53698
472.4164 3142.25989
472.6270 3138.38923
472.8376 3271.56864
473.0481 3473.31404
473.2587 3532.70513
473.4692 3448.98417
473.6797 3338.23002
473.8902 3075.68043
474.1007 3058.98948
474.3111 3097.04074
474.5216 3012.31628
474.7320 3142.64901
474.9424 3303.49647
475.1528 3368.86763
475.3632 3226.26757
475.5736 3173.51190
475.7840 3193.56151
475.9943 3237.51092
476.2046 3245.57992
476.4149 3337.47227
476.6252 3342.61268
476.8355 3471.06128
477.0458 3543.19073
477.2561 3544.76767
477.4663 3361.59735
477.6765 3384.57555
477.8867 3406.52978
478.0969 3392.50119
478.3071 3371.03848
478.5173 3483.30813
478.7274 3456.88933
478.9375 3512.00017
479.1477 3473.92843
479.3578 3628.03808
479.5679 3565.06304
479.7779 3601.96744
479.9880 3595.90545
480.1980 3641.08364
480.4081 3655.35798
480.6181 3521.58466
480.8281 3639.58862
481.0381 3570.03960
481.2480 3569.13850
481.4580 3666.13030
481.6679 3625.86723
481.8778 3565.32928
482.0877 3583.65860
482.2976 3502.14944
482.5075 3593.91892
482.7174 3667.31812
482.9272 3730.62083
483.1371 3603.15526
483.3469 3651.58972
483.5567 3775.04128
483.7665 3646.12164
483.9762 3710.48930
484.1860 3857.61538
484.3957 3867.19987
484.6055 3700.00370
484.8152 3786.22319
485.0249 3905.29209
485.2346 3894.64265
485.4442 3893.08620
485.6539 3917.84614
485.8635 3913.23821
486.0732 3795.84864
486.2828 3804.55251
486.4924 3812.94918
486.7019 3932.53007
486.9115 3886.96277
487.1210 3901.56479
487.3306 4022.92741
487.5401 3997.43020
487.7496 4049.87868
487.9591 4093.35706
488.1686 4041.76873
488.3780 3996.73389
488.5875 4101.26222
488.7969 4194.60863
489.0063 4174.37470
489.2157 4220.98647
489.4251 4150.82306
489.6345 4120.90224
489.8438 4239.99162
490.0531 4045.94658
490.2625 4132.94430
490.4718 4218.79515
490.6811 4283.32664
490.8903 4305.89526
491.0996 4336.73767
491.3089 4353.08046
491.5181 4403.68576
491.7273 4403.60385
491.9365 4388.98135
492.1457 4484.10950
492.3549 4497.38033
492.5640 4403.84960
492.7732 4475.24179
492.9823 4524.39304
493.1914 4644.75217
493.4005 4622.75698
493.6096 4575.61274
493.8187 4555.70648
494.0277 4652.00197
494.2368 4653.76323
494.4458 4694.94788
494.6548 4750.07920
494.8638 4809.36789
495.0728 4794.37676
495.2817 4783.66589
495.4907 4832.61234
495.6996 4845.12543
495.9085 4868.79995
496.1174 4930.54620
496.3263 4932.22554
496.5352 4953.40154
496.7440 5051.66308
496.9529 5085.57744
497.1617 5029.62693
497.3705 5061.02229
497.5793 5176.26150
497.7881 5086.76526
497.9969 5171.48973
498.2056 5239.97380
498.4144 5265.59389
498.6231 5325.84513
498.8318 5330.16635
499.0405 5362.77001
499.2492 5336.49457
499.4578 5390.31519
499.6665 5391.01150
499.8751 5530.90824
500.0837 5519.43962
500.2923 5548.52078
500.5009 5570.59788
500.7095 5696.30220
500.9180 5647.10999
501.1266 5718.93225
501.3351 5723.74498
501.5436 5815.04343
501.7521 5791.63515
501.9606 5883.40463
502.1691 5941.66934
502.3775 5882.58544
502.5860 5954.71490
502.7944 5999.54493
503.0028 6073.90668
503.2112 6080.41922
503.4196 6120.51845
503.6279 6179.70474
503.8363 6139.56456
504.0446 6298.63029
504.2529 6242.63882
504.4612 6326.09355
504.6695 6410.03979
504.8778 6425.64531
505.0860 6454.23495
505.2943 6454.31687
505.5025 6548.11384
505.7107 6562.34722
505.9189 6623.37669
506.1271 6683.25930
506.3353 6684.73384
506.5434 6676.07093
506.7516 6793.74721
506.9597 6850.82410
507.1678 6895.38790
507.3759 6875.50213
507.5840 6927.11094
507.7920 6998.62601
508.0001 7034.71122
508.2081 7148.27108
508.4161 7112.34971
508.6241 7302.03258
508.8321 7271.68168
509.0401 7219.99095
509.2480 7380.44930
509.4560 7365.82680
509.6639 7471.56343
509.8718 7463.71971
510.0797 7618.73047
510.2876 7635.05278
510.4955 7703.25014
510.7033 7762.94843
510.9112 7803.82588
511.1190 7905.63041
511.3268 7873.41586
511.5346 7943.12872
511.7424 7967.54050
511.9501 8103.03412
512.1579 8136.47745
512.3656 8159.96765
512.5733 8137.09184
512.7810 8300.49926
512.9887 8373.91894
513.1964 8412.13404
513.4040 8472.67200
513.6117 8528.09003
513.8193 8614.26855
514.0269 8636.18182
514.2345 8759.22378
514.4421 8699.75077
514.6497 8714.61902
514.8572 8895.04507
515.0647 8949.05001
515.2723 8995.49794
515.4798 9086.05912
515.6873 9159.11016
515.8947 9220.59018
516.1022 9192.00054
516.3097 9277.56467
516.5171 9401.22103
516.7245 9463.11064
516.9319 9559.18086
517.1393 9586.27548
517.3467 9603.60130
517.5540 9606.63229
517.7614 9848.33356
517.9687 9873.23686
518.1760 9902.13370
518.3833 10054.29778
518.5906 10077.33743
518.7978 10257.06717
519.0051 10207.32201
519.2123 10385.04473
519.4196 10187.80486
519.6268 10386.23256
519.8340 10442.94081
520.0411 10498.05165
520.2483 10753.51527
520.4554 10711.24520
520.6626 10996.42485
520.8697 10913.01108
521.0768 11145.82417
521.2839 11088.03049
521.4909 11135.91200
521.6980 11281.85025
521.9050 11510.52644
522.1121 11392.54296
522.3191 11644.44312
522.5261 11643.58297
522.7331 11697.30119
522.9400 11886.90214
523.1470 11896.52759
523.3539 12017.66494
523.5608 12025.63154
523.7677 12034.56068
523.9746 12188.67033
524.1815 12480.97691
524.3884 12380.44213
524.5952 12387.44618
524.8020 12693.94518
525.0089 12600.70117
525.2157 12729.21120
525.4225 12832.28547
525.6292 12853.85058
525.8360 12959.54625
526.0427 13073.12660
526.2494 13241.26483
526.4562 13183.02060
526.6629 13333.15719
526.8695 13351.03596
527.0762 13628.80196
527.2829 13694.11168
527.4895 13786.10644
527.6961 13915.66094
527.9027 14044.88777
528.1093 14101.94418
528.3159 14144.41905
528.5224 14094.12094
528.7290 14527.20489
528.9355 14318.41447
529.1420 14762.98753
529.3485 14640.86715
529.5550 14811.85207
529.7615 14802.00134
529.9680 14973.43680
530.1744 14982.65266
530.3808 15227.52828
530.5872 15155.31690
530.7936 15320.40367
531.0000 15394.41726
531.2064 15598.82502
531.4127 15675.89008
531.6191 15794.32411
531.8254 15880.78935
532.0317 16097.66925
532.2380 16066.33532
532.4443 16159.98893
532.6505 16002.19294
532.8568 16281.00341
533.0630 16619.06161
533.2692 16525.05984
533.4754 16669.50308
533.6816 16908.09144
533.8878 16825.08727
534.0939 17165.91023
534.3001 17185.07921
534.5062 17285.24536
534.7123 17208.69229
534.9184 17360.30342
535.1245 17482.01420
535.3306 17488.36290
535.5366 17864.30853
535.7426 17891.03452
535.9487 17912.62011
536.1547 17931.91198
536.3607 18261.98310
536.5666 18142.07453
536.7726 18280.25098
536.9785 18502.98806
537.1845 18680.38312
537.3904 18561.66237
537.5963 18670.14327
537.8022 18851.06083
538.0080 19035.21418
538.2139 19071.11507
538.4197 19287.23722
538.6256 19189.95870
538.8314 19272.32800
539.0372 19451.89390
539.2430 19811.68105
539.4487 19614.85078
539.6545 20006.50432
539.8602 19883.70811
540.0659 20118.20054
540.2716 20540.36881
540.4773 20577.74424
540.6830 20681.88345
540.8887 20797.96232
541.0943 20558.32950
541.2999 20713.97513
541.5056 20770.92914
541.7112 21013.63391
541.9167 20900.85227
542.1223 20957.29429
542.3279 21397.40278
542.5334 21459.88630
542.7389 21685.06047
542.9444 21753.05303
543.1499 21852.66623
543.3554 21756.55506
543.5609 22167.11135
543.7663 22182.83975
543.9718 22061.00609
544.1772 22269.14115
544.3826 22259.45426
544.5880 22915.27530
544.7934 22726.28874
544.9987 22779.14681
545.2041 23200.82358
545.4094 23137.95094
545.6147 23188.86344
545.8200 23505.64325
546.0253 23479.16301
546.2306 23762.35613
546.4358 23597.88376
546.6411 23933.46392
546.8463 23738.55873
547.0515 24033.54815
547.2567 24218.11110
547.4619 24263.10497
547.6670 24378.97904
547.8722 24484.81807
548.0773 24829.36833
548.2824 24897.27897
548.4876 24980.93850
548.6926 25096.52585
548.8977 25202.71303
549.1028 25309.04357
549.3078 25533.27567
549.5129 25478.36962
549.7179 25638.70510
549.9229 25842.47799
550.1279 25728.97956
550.3328 26100.82925
550.5378 25790.99205
550.7427 26123.29546
550.9476 26335.52647
551.1526 25754.86589
551.3575 26395.38859
551.5623 26476.48815
551.7672 26404.93213
551.9720 26489.36988
552.1769 26668.99722
552.3817 26924.48132
552.5865 26758.18626
552.7913 26975.16855
552.9961 26826.01498
553.2008 27072.48802
553.4056 27387.83425
553.6103 27255.55595
553.8150 27536.10719
554.0197 27637.52260
554.2244 27517.59355
554.4291 27576.53409
554.6337 28011.03114
554.8384 27789.07229
555.0430 28009.22893
555.2476 27741.82565
555.4522 27742.00996
555.6568 28160.14374
555.8613 28306.57351
556.0659 28432.83078
556.2704 28158.99688
556.4750 28530.41649
556.6795 28738.63348
556.8839 28447.22800
557.0884 28951.02832
557.2929 28783.19728
557.4973 28630.60313
557.7018 28782.80816
557.9062 28962.80414
558.1106 29028.52345
558.3150 28836.23967
558.5193 29257.58876
558.7237 29326.35955
558.9280 29116.91378
559.1323 29317.69664
559.3367 29111.11803
559.5410 29420.62755
559.7452 29130.18462
559.9495 29511.76216
560.1537 29485.67104
560.3580 29393.43052
560.5622 29587.20933
560.7664 29841.17793
560.9706 29896.78028
561.1748 30010.83166
561.3789 29997.72466
561.5831 30001.65676
561.7872 29940.07434
561.9913 30218.88481
562.1954 30118.28858
562.3995 30291.34194
562.6036 30262.19935
562.8076 30062.66575
563.0117 30353.27252
563.2157 30234.10122
563.4197 30444.01801
563.6237 30682.93405
563.8277 30374.69427
564.0316 30227.52724
564.2356 30625.73428
564.4395 30600.97434
564.6434 30807.34815
564.8473 31021.15609
565.0512 31011.16200
565.2551 30951.09508
565.4590 31006.79983
565.6628 31207.68508
565.8666 31407.89451
566.0705 31185.40318
566.2743 31206.55870
566.4780 31288.76416
566.6818 31145.03772
566.8856 31717.85458
567.0893 31319.34034
567.2930 31517.76803
567.4967 31217.31053
567.7004 31406.15373
567.9041 31530.97743
568.1078 31546.39863
568.3114 31762.27502
568.5151 31742.32780
568.7187 31446.49872
568.9223 31652.27862
569.1259 31846.75373
569.3295 32111.57657
569.5330 32103.38469
569.7366 32102.93414
569.9401 32171.80733
570.1436 32276.27422
570.3471 32392.23021
570.5506 32287.43565
570.7541 32234.57757
570.9575 32184.46378
571.1609 31868.46220
571.3644 32538.47565
571.5678 32407.83573
571.7712 32859.08516
571.9746 32708.08843
572.1779 32522.54246
572.3813 32328.12878
572.5846 32607.45124
572.7879 32449.24566
572.9912 33145.71887
573.1945 32981.18506
573.3978 32569.52286
573.6010 32928.20411
573.8043 33460.43023
574.0075 32705.77422
574.2107 32800.88189
574.4139 32774.89317
574.6171 32896.50155
574.8203 32765.45203
575.0234 33139.67736
575.2266 32608.98722
575.4297 32723.24340
575.6328 32967.44319
575.8359 33296.69512
576.0390 32674.48126
576.2420 32772.12841
576.4451 32510.91000
576.6481 32857.46727
576.8512 33272.59053
577.0542 32605.87431
577.2571 33048.80899
577.4601 33117.62074
577.6631 33023.10698
577.8660 32828.48851
578.0689 32707.96555
578.2719 32874.52685
578.4748 32723.59155
578.6776 32710.36167
578.8805 32854.12908
579.0834 32289.77033
579.2862 32844.29883
579.4890 33218.66752
579.6918 33013.21529
579.8946 32680.42037
580.0974 33080.20435
580.3002 32730.96424
580.5029 32693.30209
580.7057 33023.61897
580.9084 32551.82841
581.1111 33182.54135
581.3138 32927.87643
581.5164 32674.93181
581.7191 32478.36777
581.9217 32657.42168
582.1244 32698.48345
582.3270 32670.07813
582.5296 32608.76194
582.7322 32869.01781
582.9347 32705.71278
583.1373 32483.40578
583.3398 32736.75999
583.5424 32437.63367
583.7449 32403.06396
583.9474 32248.44232
584.1498 32164.37320
584.3523 32653.36670
584.5548 32243.19952
584.7572 32482.11555
584.9596 32693.44545
585.1620 33298.57926
585.3644 32407.67189
585.5668 32468.29177
585.7691 32737.62014
585.9715 32564.07526
586.1738 32853.67853
586.3761 32833.44459
586.5784 32997.05682
586.7807 32968.67197
586.9830 32982.29096
587.1852 32948.41756
587.3875 32575.15478
587.5897 33179.91995
587.7919 32898.07849
587.9941 32610.46176
588.1963 32713.24931
588.3984 33058.02485
588.6006 32477.77386
588.8027 33132.91906
589.0048 32796.78595
589.2069 32872.11024
589.4090 32871.86449
589.6111 33155.05761
589.8131 33036.02966
590.0152 33243.65273
590.2172 33188.93101
590.4192 33472.47228
590.6212 33115.38845
590.8232 32947.88509
591.0252 33354.98032
591.2271 33499.58739
591.4291 33387.93213
591.6310 33271.68943
591.8329 33241.29757
592.0348 33556.27516
592.2367 33610.13674
592.4385 33943.21838
592.6404 34057.10592
592.8422 34155.10123
593.0440 34232.63732
593.2458 34522.89593
593.4476 34680.17993
593.6494 34713.82806
593.8512 34872.54564
594.0529 35144.29061
594.2546 35046.90970
594.4563 34989.25938
594.6580 34758.43282
594.8597 34697.66959
595.0614 34734.49207
595.2630 35082.66723
595.4647 35043.55103
595.6663 34734.86070
595.8679 35066.52924
596.0695 35560.08971
596.2711 35261.96690
596.4727 35391.43948
596.6742 35731.56613
596.8757 35907.60952
597.0773 35759.50042
597.2788 35396.84612
597.4802 35752.96740
597.6817 36222.62808
597.8832 36023.13544
598.0846 36351.95730
598.2860 36208.06702
598.4875 35895.42411
598.6889 36470.24798
598.8902 36583.97168
599.0916 36664.14966
599.2930 36277.22692
599.4943 36792.78258
599.6956 36780.57668
599.8969 36586.94124
600.0982 36220.86682
600.2995 36322.34368
600.5008 37158.24260
600.7020 36521.52912
600.9032 37085.10964
601.1045 36894.85334
601.3057 36582.14899
601.5068 37313.76535
601.7080 37287.30559
601.9092 36989.38758
602.1103 37577.13413
602.3115 37411.14626
602.5126 37550.22382
602.7137 37409.93796
602.9147 37456.50877
603.1158 37678.20139
603.3169 37996.76293
603.5179 37812.40478
603.7189 37702.75653
603.9199 37857.17338
604.1209 37834.80956
604.3219 37756.43379
604.5229 37853.85567
604.7238 38118.00268
604.9247 38098.52649
605.1257 38281.84018
605.3266 38621.68011
605.5275 38143.70468
605.7283 38283.72431
605.9292 38534.58000
606.1300 37880.95029
606.3309 38100.22631
606.5317 38532.63443
606.7325 38681.95183
606.9332 38589.75228
607.1340 38829.58990
607.3348 38740.15510
607.5355 38204.97991
607.7362 39240.06428
607.9369 38469.94611
608.1376 38775.58496
608.3383 38528.41561
608.5390 39421.57575
608.7396 38973.97170
608.9402 39610.37798
609.1409 39595.03870
609.3415 39288.25298
609.5421 39172.13315
609.7426 39519.59153
609.9432 38953.98352
610.1437 38829.87661
610.3443 39731.00334
610.5448 39434.72370
610.7453 39840.54919
610.9457 39580.86675
611.1462 39761.08800
611.3467 39585.33133
611.5471 39925.37606
611.7475 39387.78426
611.9479 40163.22715
612.1483 39654.55267
612.3487 40272.09717
612.5491 40083.68404
612.7494 40755.15156
612.9497 40027.52874
613.1501 40402.22510
613.3504 40236.03244
613.5506 40999.39231
613.7509 40607.28821
613.9512 40455.90236
614.1514 40735.65489
614.3516 41149.93849
614.5519 40877.53817
614.7521 41085.77563
614.9522 40701.47430
615.1524 40707.27005
615.3526 41210.68125
615.5527 41774.26177
615.7528 41300.68947
615.9529 41332.35107
616.1530 41773.03298
616.3531 41788.08555
616.5532 41724.96716
616.7532 41288.36070
616.9532 41693.63324
617.1533 41420.24989
617.3533 41876.55780
617.5532 41431.32940
617.7532 41719.04853
617.9532 40874.11806
618.1531 41930.64466
618.3530 41440.07422
618.5530 41650.40062
618.7528 41804.61266
618.9527 41800.16857
619.1526 41345.35567
619.3524 41466.20631
619.5523 41829.94604
619.7521 41922.12511
619.9519 41923.35389
620.1517 41975.78189
620.3515 42312.11980
620.5512 42564.30667
620.7510 42329.54801
620.9507 42019.60842
621.1504 42097.75891
621.3501 42208.45162
621.5498 42460.53609
621.7495 42560.31313
621.9492 42171.95682
622.1488 41910.98416
622.3484 41893.78122
622.5480 41835.63939
622.7476 42642.43668
622.9472 41854.86982
623.1468 42082.60394
623.3463 43272.51474
623.5459 42934.70230
623.7454 42597.13561
623.9449 42579.87123
624.1444 42562.66830
624.3439 43006.27881
624.5433 42741.78364
624.7428 42526.52165
624.9422 42646.26638
625.1416 42765.49912
625.3410 42805.72123
625.5404 42651.57062
625.7398 42623.24721
625.9391 42915.00084
626.1385 42537.78548
626.3378 42662.89589
626.5371 43329.36636
626.7364 42649.89128
626.9357 43046.56235
627.1350 43064.31824
627.3342 42712.78440
627.5335 42599.51125
627.7327 42780.44929
627.9319 42758.35171
628.1311 43800.58349
628.3303 43053.27969
628.5294 43297.06989
628.7286 43360.80268
628.9277 43651.55280
629.1268 43328.38333
629.3259 43951.82598
629.5250 43915.49501
629.7241 43918.32121
629.9231 43097.49533
630.1222 43984.98259
630.3212 43804.92518
630.5202 43411.36702
630.7192 43983.81525
630.9182 43292.56436
631.1171 43576.06467
631.3161 43313.26932
631.5150 43317.26286
631.7140 43630.62256
631.9129 43757.53518
632.1118 44170.73336
632.3106 44056.78438
632.5095 43832.53180
632.7083 43719.91400
632.9072 43858.43860
633.1060 43999.91228
633.3048 44026.78163
633.5036 43521.60918
633.7023 43750.32633
633.9011 44232.97113
634.0998 44067.22902
634.2986 44275.11833
634.4973 43940.56215
634.6960 44145.56382
634.8947 43936.77341
635.0933 44306.06313
635.2920 43850.77920
635.4906 43445.77290
635.6892 44285.03049
635.8878 44300.67697
636.0864 44243.78440
636.2850 43993.64550
636.4836 44027.17075
636.6821 44024.20119
636.8806 44141.83652
637.0792 44122.91329
637.2777 44116.42123
637.4761 44147.65275
637.6746 43845.74120
637.8731 44265.26760
638.0715 43743.38372
638.2699 44536.72585
638.4683 44168.64443
638.6667 43407.74212
638.8651 44349.41863
639.0635 44512.51886
639.2618 44565.02878
639.4602 44431.00971
639.6585 44256.35893
639.8568 44496.52423
640.0551 44572.25811
640.2534 44451.71467
640.4516 44302.68398
640.6499 44437.66560
640.8481 45201.88562
641.0463 44930.73456
641.2445 45281.83832
641.4427 44998.50185
641.6409 44746.49929
641.8390 45023.28227
642.0372 45322.18331
642.2353 45219.78487
642.4334 44602.77285
642.6315 44946.95447
642.8296 44903.35322
643.0277 44660.13645
643.2257 45351.98125
643.4237 45389.41812
643.6218 45301.27355
643.8198 44979.88581
644.0178 45106.04069
644.2157 44996.51532
644.4137 44942.05983
644.6116 45745.43701
644.8096 45992.40156
