# Averages = 100
# wavelength [µm]	intensity
446.8250 14.33578
447.0374 36746.70328
447.2498 1232.87719
447.4621 1219.68827
447.6745 1226.81520
447.8868 1238.87774
448.0992 1236.35873
448.3115 1240.16796
448.5238 1248.54415
448.7360 1241.19194
448.9483 1248.40079
449.1606 1239.18493
449.3728 1263.26904
449.5850 1239.73788
449.7972 1243.58806
450.0094 1241.58105
450.2216 1252.12809
450.4337 1246.59858
450.6459 1725.27031
450.8580 2082.64086
451.0701 2110.45228
451.2822 2137.91554
451.4943 2123.66167
451.7064 2108.89582
451.9184 2105.80339
452.1305 2195.72970
452.3425 2300.29898
452.5545 2202.61087
452.7665 2214.69389
452.9785 2296.85839
453.1905 2335.85172
453.4024 2294.91282
453.6143 2396.53303
453.8263 2397.18838
454.0382 2585.66295
454.2501 2388.75075
454.4619 2370.25759
454.6738 2492.00933
454.8856 2614.60074
455.0975 2420.39187
455.3093 2404.06956
455.5211 2488.79402
455.7329 2462.19091
455.9446 2514.02500
456.1564 2529.30285
456.3681 2625.63930
456.5798 2721.25896
456.7916 2654.55661
457.0033 2621.27712
457.2149 2588.30483
457.4266 2627.68726
457.6382 2675.60973
457.8499 2648.00311
458.0615 2754.53845
458.2731 2659.47174
458.4847 2773.46168
458.6963 2864.78061
458.9078 2892.91970
459.1194 3070.62195
459.3309 3073.26382
459.5424 2929.57834
459.7539 2819.45906
459.9654 2852.45183
460.1769 2898.75641
460.3883 2879.21879
460.5998 2736.92592
460.8112 2726.39936
461.0226 2784.54119
461.2340 2868.40551
461.4454 2847.63911
461.6567 2813.21275
461.8681 2825.93064
462.0794 2786.83492
462.2907 2913.58370
462.5020 3162.28903
462.7133 3256.43415
462.9246 3015.87974
463.1359 2891.21988
463.3471 2756.77073
463.5583 2831.68543
463.7696 3231.14174
463.9808 3056.30664
464.1919 2996.58787
464.4031 2971.09066
464.6143 3010.94414
464.8254 2935.74272
465.0365 2880.38613
465.2476 3138.75787
465.4587 3314.35071
465.6698 2888.70088
465.8809 2969.67757
466.0919 2950.59050
466.3030 3007.54451
466.5140 3045.98488
466.7250 2964.10709
466.9360 3090.61012
467.1469 3028.00372
467.3579 2820.76976
467.5688 2826.66791
467.7798 3070.02803
467.9907 3162.10471
468.2016 3072.40368
468.4125 3022.63804
468.6233 2876.37211
468.8342 2905.24847
469.0450 3087.16953
469.2559 3186.57794
469.4667 3129.11193
469.6775 2873.50495
469.8882 3036.03175
470.0990 3003.75577
470.3098 3296.69722
470.5205 3109.69719
470.7312 3199.43918
470.9419 3405.54675
471.1526 3298.74518
471.3633 3022.41276
471.5739 3047.80757
471.7846 3046.33304
471.9952 2963.12407
472.2058 3072.81327
472.4164 3062.45055
472.6270 3033.55371
472.8376 3160.01578
473.0481 3358.40251
473.2587 3425.55541
473.4692 3334.01121
473.6797 3232.86203
473.8902 2993.33160
474.1007 2962.83735
474.3111 2995.66629
474.5216 2926.30159
474.7320 3046.98839
474.9424 3196.94066
475.1528 3269.09060
475.3632 3144.20546
475.5736 3082.58208
475.7840 3090.58964
475.9943 3130.27927
476.2046 3159.21707
476.4149 3225.40742
476.6252 3246.97253
476.8355 3361.41303
477.0458 3429.50799
477.2561 3413.98439
477.4663 3257.41717
477.6765 3277.03672
477.8867 3292.04833
478.0969 3286.45737
478.3071 3268.43525
478.5173 3373.86468
478.7274 3329.79239
478.9375 3395.51171
479.1477 3369.19531
479.3578 3499.63044
479.5679 3454.71848
479.7779 3476.24264
479.9880 3483.96348
480.1980 3526.80698
480.4081 3529.42838
480.6181 3406.71410
480.8281 3527.79001
481.0381 3464.20058
481.2480 3461.96829
481.4580 3538.41897
481.6679 3509.84980
481.8778 3456.93029
482.0877 3471.94190
482.2976 3378.67740
482.5075 3470.48784
482.7174 3551.11637
482.9272 3601.31209
483.1371 3485.06938
483.3469 3528.34296
483.5567 3638.76944
483.7665 3522.73153
483.9762 3581.75399
484.1860 3719.39797
484.3957 3709.89539
484.6055 3570.94071
484.8152 3656.11573
485.0249 3761.66804
485.2346 3753.74240
485.4442 3741.14739
485.6539 3775.34847
485.8635 3765.57966
486.0732 3648.25153
486.2828 3672.37660
486.4924 3668.34210
486.7019 3793.24772
486.9115 3734.69629
487.1210 3745.05901
487.3306 3881.04414
487.5401 3849.44398
487.7496 3902.58877
487.9591 3950.30644
488.1686 3891.44782
488.3780 3842.41945
488.5875 3927.57399
488.7969 4027.57630
489.0063 4002.57060
489.2157 4042.15784
489.4251 3990.05752
489.6345 3972.24019
489.8438 4062.35081
490.0531 3899.20962
490.2625 3972.42450
490.4718 4062.96520
490.6811 4130.73249
490.8903 4141.87344
491.0996 4181.68595
491.3089 4172.04002
491.5181 4220.14680
491.7273 4238.12797
491.9365 4209.21065
492.1457 4296.47460
492.3549 4303.43769
492.5640 4227.78573
492.7732 4296.78180
492.9823 4351.44208
493.1914 4464.92003
493.4005 4448.74108
493.6096 4403.54241
493.8187 4366.39225
494.0277 4457.87502
494.2368 4450.68665
494.4458 4507.62018
494.6548 4559.37235
494.8638 4606.31179
495.0728 4588.00295
495.2817 4593.08191
495.4907 4627.83594
495.6996 4649.29866
495.9085 4650.67080
496.1174 4736.72644
496.3263 4719.44159
496.5352 4747.76499
496.7440 4847.13244
496.9529 4856.51213
497.1617 4816.35147
497.3705 4846.82524
497.5793 4957.68179
497.7881 4869.84441
497.9969 4970.74783
498.2056 5018.05591
498.4144 5043.92175
498.6231 5083.32467
498.8318 5080.33464
499.0405 5113.42981
499.2492 5113.26598
499.4578 5156.51908
499.6665 5165.48918
499.8751 5280.07303
500.0837 5288.59258
500.2923 5297.41933
500.5009 5331.41561
500.7095 5446.10186
500.9180 5395.51703
501.1266 5455.15388
501.3351 5474.40479
501.5436 5550.56874
501.7521 5539.01820
501.9606 5611.45485
502.1691 5659.17253
502.3775 5622.24765
502.5860 5683.78911
502.7944 5726.05919
503.0028 5787.90784
503.2112 5804.33255
503.4196 5830.46463
503.6279 5880.08692
503.8363 5838.47219
504.0446 6006.05747
504.2529 5967.22799
504.4612 6035.91686
504.6695 6126.33468
504.8778 6099.69060
505.0860 6122.89409
505.2943 6120.17029
505.5025 6229.18367
505.7107 6233.56632
505.9189 6318.43415
506.1271 6361.11382
506.3353 6354.76511
506.5434 6335.92380
506.7516 6467.01428
506.9597 6485.40504
507.1678 6555.52749
507.3759 6557.18634
507.5840 6593.43539
507.7920 6669.29215
508.0001 6674.59639
508.2081 6785.69870
508.4161 6747.56552
508.6241 6953.52974
508.8321 6924.44858
509.0401 6877.48866
509.2480 7011.22102
509.4560 6991.10996
509.6639 7087.01634
509.8718 7123.75690
510.0797 7235.45311
510.2876 7232.74980
510.4955 7329.57776
510.7033 7377.99174
510.9112 7410.73876
511.1190 7523.97095
511.3268 7478.48557
511.5346 7552.39676
511.7424 7593.56093
511.9501 7712.44552
512.1579 7733.86727
512.3656 7779.84417
512.5733 7752.03275
512.7810 7878.53578
512.9887 7947.94144
513.1964 7986.23846
513.4040 8012.24766
513.6117 8079.93303
513.8193 8196.31909
514.0269 8202.29916
514.2345 8312.39796
514.4421 8258.67974
514.6497 8256.54985
514.8572 8437.83605
515.0647 8476.80889
515.2723 8565.62930
515.4798 8637.14437
515.6873 8695.88011
515.8947 8784.20900
516.1022 8734.21808
516.3097 8807.37153
516.5171 8934.38655
516.7245 8986.34352
516.9319 9063.55194
517.1393 9093.75948
517.3467 9106.94840
517.5540 9109.30356
517.7614 9342.58768
517.9687 9364.58287
518.1760 9402.65460
518.3833 9537.02183
518.5906 9542.14176
518.7978 9706.06118
519.0051 9662.21416
519.2123 9842.96789
519.4196 9662.80808
519.6268 9847.73965
519.8340 9902.11322
520.0411 9931.25582
520.2483 10174.18587
520.4554 10115.08149
520.6626 10404.78715
520.8697 10315.80291
521.0768 10520.08779
521.2839 10484.59650
521.4909 10525.02340
521.6980 10661.76627
521.9050 10830.41650
522.1121 10754.37542
522.3191 10988.90880
522.5261 10953.25366
522.7331 11014.44697
522.9400 11191.08427
523.1470 11245.41689
523.3539 11354.04115
523.5608 11360.75849
523.7677 11361.70055
523.9746 11509.89157
524.1815 11783.07012
524.3884 11699.86115
524.5952 11704.51004
524.8020 12012.58598
525.0089 11925.89546
525.2157 12051.96842
525.4225 12105.15417
525.6292 12161.35043
525.8360 12241.85608
526.0427 12323.73387
526.2494 12496.31620
526.4562 12482.82008
526.6629 12588.06520
526.8695 12605.55485
527.0762 12871.97511
527.2829 12896.07970
527.4895 13059.87624
527.6961 13162.72523
527.9027 13294.55298
528.1093 13357.81473
528.3159 13413.23277
528.5224 13354.51750
528.7290 13731.22088
528.9355 13558.78191
529.1420 13921.35429
529.3485 13805.09111
529.5550 14032.51804
529.7615 13988.99870
529.9680 14126.29453
530.1744 14163.58804
530.3808 14357.55116
530.5872 14294.20748
530.7936 14469.08354
531.0000 14518.50102
531.2064 14681.70365
531.4127 14759.71078
531.6191 14911.30143
531.8254 14996.74268
532.0317 15166.39642
532.2380 15131.84718
532.4443 15297.11826
532.6505 15120.76767
532.8568 15405.74252
533.0630 15700.81386
533.2692 15652.07220
533.4754 15778.30900
533.6816 15981.11934
533.8878 15859.59288
534.0939 16181.92268
534.3001 16216.06232
534.5062 16309.22442
534.7123 16246.96617
534.9184 16339.65723
535.1245 16503.47425
535.3306 16528.72571
535.5366 16867.64406
535.7426 16877.14663
535.9487 16968.89563
536.1547 16938.27850
536.3607 17227.71792
536.5666 17128.86247
536.7726 17243.15961
536.9785 17486.58117
537.1845 17674.80998
537.3904 17525.34922
537.5963 17585.66190
537.8022 17792.60914
538.0080 17948.86916
538.2139 18066.25873
538.4197 18191.86065
538.6256 18141.09150
538.8314 18213.20048
539.0372 18350.59871
539.2430 18739.05742
539.4487 18528.62863
539.6545 18866.01100
539.8602 18782.26956
540.0659 18957.30945
540.2716 19368.54157
540.4773 19405.03638
540.6830 19481.24130
540.8887 19612.49561
541.0943 19388.01776
541.2999 19502.35585
541.5056 19604.52901
541.7112 19818.88990
541.9167 19688.06566
542.1223 19726.03500
542.3279 20128.60422
542.5334 20205.17777
542.7389 20402.60196
542.9444 20464.10246
543.1499 20582.67985
543.3554 20538.30037
543.5609 20897.26833
543.7663 20926.18565
543.9718 20736.21607
544.1772 20931.55133
544.3826 20958.37972
544.5880 21539.12221
544.7934 21395.88728
544.9987 21444.44462
545.2041 21858.85110
545.4094 21793.91001
545.6147 21796.10133
545.8200 22079.11013
546.0253 22067.37527
546.2306 22396.75009
546.4358 22157.09678
546.6411 22490.48562
546.8463 22353.02595
547.0515 22655.34710
547.2567 22812.59014
547.4619 22904.25722
547.6670 22978.86472
547.8722 23129.26755
548.0773 23387.31161
548.2824 23377.56328
548.4876 23511.58236
548.6926 23626.43244
548.8977 23703.72278
549.1028 23845.46270
549.3078 24012.82271
549.5129 24000.76017
549.7179 24120.11579
549.9229 24269.76087
550.1279 24207.56406
550.3328 24555.88258
550.5378 24240.16772
550.7427 24627.56149
550.9476 24803.72776
551.1526 24286.77949
551.3575 24882.36976
551.5623 24966.58223
551.7672 24867.09191
551.9720 24951.18151
552.1769 25065.39673
552.3817 25250.55358
552.5865 25158.53835
552.7913 25367.51308
552.9961 25212.70712
553.2008 25457.74658
553.4056 25771.88451
553.6103 25665.36965
553.8150 25921.67294
554.0197 25995.50221
554.2244 25909.40561
554.4291 25977.05002
554.6337 26379.63971
554.8384 26165.79082
555.0430 26398.15335
555.2476 26181.35538
555.4522 26240.62359
555.6568 26556.58421
555.8613 26674.85441
556.0659 26851.04116
556.2704 26527.11394
556.4750 26867.46587
556.6795 27035.27643
556.8839 26781.18495
557.0884 27258.27975
557.2929 27205.25783
557.4973 27014.57146
557.7018 27103.16659
557.9062 27289.38839
558.1106 27258.62790
558.3150 27088.93321
558.5193 27489.53638
558.7237 27551.22120
558.9280 27321.97157
559.1323 27548.25164
559.3367 27445.46409
559.5410 27645.63255
559.7452 27413.61817
559.9495 27722.90242
560.1537 27733.01938
560.3580 27641.55710
560.5622 27884.65099
560.7664 28064.68792
560.9706 28047.38258
561.1748 28162.00740
561.3789 28156.19116
561.5831 28186.99261
561.7872 28089.32498
561.9913 28387.38636
562.1954 28306.96262
562.3995 28441.20697
562.6036 28475.36709
562.8076 28272.90490
563.0117 28564.16702
563.2157 28439.42524
563.4197 28664.02598
563.6237 28870.95274
563.8277 28558.28935
564.0316 28317.81686
564.2356 28740.43569
564.4395 28718.37907
564.6434 28906.07540
564.8473 29054.65553
565.0512 29049.10554
565.2551 29033.74577
565.4590 29094.20181
565.6628 29292.28135
565.8666 29504.06180
566.0705 29317.43040
566.2743 29314.99332
566.4780 29375.49032
566.6818 29303.36086
566.8856 29811.19567
567.0893 29403.91612
567.2930 29547.70401
567.4967 29331.74571
567.7004 29547.64257
567.9041 29700.33912
568.1078 29705.80720
568.3114 29945.93153
568.5151 29861.18659
568.7187 29469.75832
568.9223 29691.32806
569.1259 29877.42698
569.3295 30182.92248
569.5330 30159.57563
569.7366 30277.53863
569.9401 30368.30461
570.1436 30366.37952
570.3471 30439.32817
570.5506 30449.64993
570.7541 30417.37394
570.9575 30417.88593
571.1609 30116.24062
571.3644 30620.38908
571.5678 30592.55719
571.7712 30948.53512
571.9746 30856.62228
572.1779 30641.29884
572.3813 30525.24045
572.5846 30720.86243
572.7879 30647.64755
572.9912 31230.82713
573.1945 31067.52210
573.3978 30671.36302
573.6010 31040.79611
573.8043 31602.34914
574.0075 30831.94425
574.2107 31022.36439
574.4139 30984.64080
574.6171 31137.86983
574.8203 30903.29549
575.0234 31335.53977
575.2266 30825.75939
575.4297 30980.85206
575.6328 31080.11711
575.8359 31384.19951
576.0390 30765.32383
576.2420 30828.66750
576.4451 30618.34111
576.6481 30993.38563
576.8512 31431.32327
577.0542 30793.01237
577.2571 31273.52728
577.4601 31295.46102
577.6631 31103.77115
577.8660 30990.25224
578.0689 30909.88995
578.2719 31111.61487
578.4748 30901.14512
578.6776 30906.28552
578.8805 30965.18510
579.0834 30509.43014
579.2862 30944.88973
579.4890 31300.58094
579.6918 31156.17867
579.8946 30827.09057
580.0974 31223.96643
580.3002 30948.82183
580.5029 30751.82772
580.7057 31158.84103
580.9084 30663.62170
581.1111 31252.33080
581.3138 31016.52768
581.5164 30750.35318
581.7191 30625.75476
581.9217 30751.64340
582.1244 30822.52360
582.3270 30824.53061
582.5296 30776.66958
582.7322 31032.35848
582.9347 30889.34882
583.1373 30617.37857
583.3398 30889.71745
583.5424 30643.73593
583.7449 30639.80383
583.9474 30429.37504
584.1498 30386.08098
584.3523 30817.21936
584.5548 30372.15479
584.7572 30514.07902
584.9596 30704.11005
585.1620 31225.15425
585.3644 30379.95755
585.5668 30492.43200
585.7691 30858.19921
585.9715 30636.89571
586.1738 30887.36229
586.3761 30894.40730
586.5784 31125.29530
586.7807 31003.50260
586.9830 30916.30009
587.1852 30875.95510
587.3875 30640.11102
587.5897 31100.47392
587.7919 30881.99661
587.9941 30531.52772
588.1963 30679.30914
588.3984 31099.51137
588.6006 30504.33069
588.8027 31105.88055
589.0048 30740.03142
589.2069 30925.12683
589.4090 30899.36339
589.6111 31107.58037
589.8131 31007.96717
590.0152 31190.66646
590.2172 31058.75679
590.4192 31418.66682
590.6212 31150.44435
590.8232 30903.80748
591.0252 31320.95823
591.2271 31401.79156
591.4291 31380.41077
591.6310 31213.00980
591.8329 31262.83688
592.0348 31516.37541
592.2367 31591.80210
592.4385 31873.35684
592.6404 31946.08021
592.8422 32011.73809
593.0440 32119.93228
593.2458 32356.39075
593.4476 32477.48715
593.6494 32498.29451
593.8512 32719.39321
594.0529 33065.17226
594.2546 32925.37791
594.4563 32886.26171
594.6580 32624.77706
594.8597 32542.34632
595.0614 32664.67149
595.2630 32912.00468
595.4647 32861.62464
595.6663 32560.12268
595.8679 32896.41963
596.0695 33363.90946
596.2711 33227.18707
596.4727 33228.86640
596.6742 33546.44491
596.8757 33739.19973
597.0773 33622.11736
597.2788 33377.87661
597.4802 33649.66254
597.6817 34104.78263
597.8832 33816.20336
598.0846 34138.57412
598.2860 34064.45813
598.4875 33800.55688
598.6889 34374.62300
598.8902 34399.62870
599.0916 34425.37166
599.2930 34092.88394
599.4943 34543.84665
599.6956 34625.84732
599.8969 34400.20213
600.0982 34123.35771
600.2995 34328.62562
600.5008 35053.42224
600.7020 34454.88289
600.9032 34967.85810
601.1045 34734.36919
601.3057 34435.93918
601.5068 35102.61445
601.7080 35071.01429
601.9092 34876.60062
602.1103 35487.07962
602.3115 35358.97918
602.5126 35606.86531
602.7137 35530.23032
602.9147 35519.86760
603.1158 35641.70126
603.3169 35841.31678
603.5179 35705.20877
603.7189 35558.90189
603.9199 35746.63918
604.1209 35819.23967
604.3219 35799.78397
604.5229 35886.41305
604.7238 36038.45425
604.9247 36062.90700
605.1257 36232.29449
605.3266 36404.95874
605.5275 36049.24704
605.7283 36197.33566
605.9292 36377.18828
606.1300 35851.53614
606.3309 36100.67154
606.5317 36346.85786
606.7325 36524.00716
606.9332 36538.48630
607.1340 36801.07685
607.3348 36634.39267
607.5355 36122.35953
607.7362 37023.30194
607.9369 36393.44915
608.1376 36648.64654
608.3383 36379.44105
608.5390 37206.06267
608.7396 36865.13731
608.9402 37360.56143
609.1409 37314.19542
609.3415 37017.36283
609.5421 36914.71864
609.7426 37229.55287
609.9432 36833.00468
610.1437 36741.68576
610.3443 37553.97160
610.5448 37389.11012
610.7453 37713.36501
610.9457 37401.41841
611.1462 37546.08692
611.3467 37480.38809
611.5471 37798.41715
611.7475 37292.93751
611.9479 38031.25072
612.1483 37495.07202
612.3487 38031.47600
612.5491 37923.32277
612.7494 38469.82323
612.9497 37840.56435
613.1501 38251.85791
613.3504 38031.90607
613.5506 38633.66073
613.7509 38240.77840
613.9512 38262.50735
614.1514 38447.56181
614.3516 38714.08446
614.5519 38607.52865
614.7521 38741.03573
614.9522 38451.61679
615.1524 38481.96768
615.3526 38972.06708
615.5527 39538.47380
615.7528 39109.85442
615.9529 39091.56606
616.1530 39440.51946
616.3531 39439.18828
616.5532 39375.20973
616.7532 38925.70107
616.9532 39271.00908
617.1533 39081.59245
617.3533 39434.68275
617.5532 39170.76101
617.7532 39373.32560
617.9532 38529.97207
618.1531 39536.63063
618.3530 39012.76022
618.5530 39363.47487
618.7528 39519.91920
618.9527 39617.62779
619.1526 39192.89955
619.3524 39289.29744
619.5523 39502.36811
619.7521 39643.04309
619.9519 39690.24877
620.1517 39591.31140
620.3515 39917.49138
620.5512 40170.57936
620.7510 39985.40202
620.9507 39651.48072
621.1504 39737.67972
621.3501 39805.34461
621.5498 40071.51911
621.7495 40136.29636
621.9492 39741.38655
622.1488 39544.74059
622.3484 39645.35729
622.5480 39610.11175
622.7476 40364.89063
622.9472 39646.27888
623.1468 39893.59158
623.3463 40934.20546
623.5459 40666.29019
623.7454 40393.64411
623.9449 40364.21480
624.1444 40436.97913
624.3439 40743.23238
624.5433 40601.18527
624.7428 40413.87804
624.9422 40463.23409
625.1416 40617.52806
625.3410 40633.95277
625.5404 40502.73941
625.7398 40539.62332
625.9391 40716.52687
626.1385 40199.35332
626.3378 40248.21785
626.5371 40972.99399
626.7364 40356.18676
626.9357 40801.45613
627.1350 40721.62631
627.3342 40422.99150
627.5335 40268.20603
627.7327 40430.65091
627.9319 40458.48280
628.1311 41486.39928
628.3303 40589.83952
628.5294 40891.15716
628.7286 41032.38509
628.9277 41490.08562
629.1268 41137.24109
629.3259 41807.82797
629.5250 41714.66587
629.7241 41629.18366
629.9231 40929.57705
630.1222 41642.90505
630.3212 41469.38066
630.5202 41101.07396
630.7192 41636.96594
630.9182 41118.46121
631.1171 41456.68325
631.3161 41210.64029
631.5150 40967.85359
631.7140 41300.21844
631.9129 41502.37343
632.1118 41980.02119
632.3106 41693.91995
632.5095 41457.29764
632.7083 41399.70876
632.9072 41455.76167
633.1060 41504.83100
633.3048 41676.40982
633.5036 41065.41882
633.7023 41416.52258
633.9011 41914.87530
634.0998 41717.77879
634.2986 41843.64695
634.4973 41628.42591
634.6960 41769.49000
634.8947 41638.17424
635.0933 41904.14394
635.2920 41588.40860
635.4906 41284.63340
635.6892 41983.78945
635.8878 42172.75553
636.0864 42131.16128
636.2850 41768.32266
636.4836 41852.35081
636.6821 41935.00683
636.8806 42096.16149
637.0792 42016.96654
637.2777 42016.86414
637.4761 42097.18548
637.6746 41879.32256
637.8731 42249.77963
638.0715 41739.52822
638.2699 42444.68482
638.4683 42064.06982
638.6667 41257.64117
638.8651 42047.27648
639.0635 42295.40837
639.2618 42348.55316
639.4602 42241.38296
639.6585 42150.49410
639.8568 42236.83647
640.0551 42343.47420
640.2534 42254.81763
640.4516 42005.43648
640.6499 42250.80361
640.8481 42971.93437
641.0463 42730.47885
641.2445 42953.50265
641.4427 42782.10815
641.6409 42501.37259
641.8390 42730.33550
642.0372 43136.71394
642.2353 42991.16480
642.4334 42365.75610
642.6315 42584.68396
642.8296 42614.87102
643.0277 42396.45515
643.2257 43103.90548
643.4237 43112.19975
643.6218 43015.35131
643.8198 42742.82811
644.0178 42921.34954
644.2157 42852.39443
644.4137 42764.98713
644.6116 43475.24317
644.8096 43741.49959
