# Averages = 100
# wavelength [µm]	intensity
446.8250 14.33578
447.0374 36746.70328
447.2498 1226.93808
447.4621 1223.57941
447.6745 1229.72332
447.8868 1244.55061
448.0992 1241.41722
448.3115 1237.17792
448.5238 1244.87828
448.7360 1240.82331
448.9483 1250.61260
449.1606 1242.17497
449.3728 1264.82550
449.5850 1231.91464
449.7972 1242.13401
450.0094 1243.28087
450.2216 1253.21352
450.4337 1255.26149
450.6459 1736.49318
450.8580 2106.82737
451.0701 2140.70078
451.2822 2160.99615
451.4943 2147.13140
451.7064 2136.99395
451.9184 2133.53288
452.1305 2231.73299
452.3425 2330.64988
452.5545 2223.39775
452.7665 2243.01729
452.9785 2336.77330
453.1905 2366.24357
453.4024 2320.12332
453.6143 2433.23263
453.8263 2429.28005
454.0382 2624.04188
454.2501 2414.59612
454.4619 2385.84263
454.6738 2524.30580
454.8856 2656.27691
455.0975 2453.95808
455.3093 2453.09793
455.5211 2519.22684
455.7329 2487.58572
455.9446 2542.59416
456.1564 2563.34009
456.3681 2655.90827
456.5798 2765.74084
456.7916 2685.11231
457.0033 2659.86085
457.2149 2636.26825
457.4266 2668.07321
457.6382 2710.09753
457.8499 2694.10289
458.0615 2800.29007
458.2731 2696.92909
458.4847 2822.71533
458.6963 2913.56322
458.9078 2946.84271
459.1194 3113.15826
459.3309 3130.83223
459.5424 2954.66595
459.7539 2868.20071
459.9654 2880.42709
460.1769 2933.73571
460.3883 2916.67613
460.5998 2776.79987
460.8112 2775.20245
461.0226 2825.82824
461.2340 2911.63813
461.4454 2876.59739
461.6567 2850.69058
461.8681 2865.37452
462.0794 2810.57087
462.2907 2952.22887
462.5020 3212.17755
462.7133 3297.90552
462.9246 3065.11291
463.1359 2922.20565
463.3471 2789.68159
463.5583 2861.23762
463.7696 3264.09355
463.9808 3103.22561
464.1919 3032.01773
464.4031 3030.19504
464.6143 3038.57123
464.8254 2954.87075
465.0365 2923.74163
465.2476 3190.81723
465.4587 3351.11175
465.6698 2934.43202
465.8809 3010.20687
466.0919 2986.92146
466.3030 3045.78008
466.5140 3084.83485
466.7250 3008.97809
466.9360 3138.26635
467.1469 3061.13985
467.3579 2878.07192
467.5688 2862.11825
467.7798 3103.12321
467.9907 3225.42790
468.2016 3099.02727
468.4125 3069.10645
468.6233 2912.10916
468.8342 2948.19437
469.0450 3124.50400
469.2559 3222.47883
469.4667 3167.98238
469.6775 2928.69771
469.8882 3080.14500
470.0990 3050.36753
470.3098 3347.38444
470.5205 3150.24697
470.7312 3230.97790
470.9419 3464.77401
471.1526 3353.50787
471.3633 3064.49852
471.5739 3094.21455
471.7846 3080.59555
471.9952 3017.10852
472.2058 3131.67189
472.4164 3101.36196
472.6270 3084.36382
472.8376 3218.79248
473.0481 3401.02074
473.2587 3487.85462
473.4692 3385.06707
473.6797 3273.10462
473.8902 3031.83342
474.1007 3005.47606
474.3111 3034.12714
474.5216 2964.08661
474.7320 3092.12562
474.9424 3251.55998
475.1528 3314.98558
475.3632 3182.78919
475.5736 3136.83277
475.7840 3142.56709
475.9943 3170.72666
476.2046 3207.22146
476.4149 3278.32694
476.6252 3295.67323
476.8355 3414.12774
477.0458 3479.02787
477.2561 3475.54633
477.4663 3309.86565
477.6765 3325.04110
477.8867 3350.92743
478.0969 3328.48169
478.3071 3317.46362
478.5173 3421.15228
478.7274 3399.50525
478.9375 3451.46221
479.1477 3417.93697
479.3578 3568.19643
479.5679 3519.53670
479.7779 3541.06085
479.9880 3526.49979
480.1980 3590.15066
480.4081 3595.88497
480.6181 3464.52825
480.8281 3589.16763
481.0381 3501.86272
481.2480 3509.35829
481.4580 3597.07279
481.6679 3562.56452
481.8778 3517.01769
482.0877 3527.21658
482.2976 3432.04747
482.5075 3518.41031
482.7174 3606.59585
482.9272 3658.14322
483.1371 3539.42247
483.3469 3585.01026
483.5567 3724.86604
483.7665 3589.94586
483.9762 3641.77995
484.1860 3795.86912
484.3957 3783.25363
484.6055 3636.16852
484.8152 3710.05923
485.0249 3838.58975
485.2346 3817.90526
485.4442 3809.26283
485.6539 3862.91962
485.8635 3831.97481
486.0732 3712.84447
486.2828 3735.31068
486.4924 3742.62193
486.7019 3847.41649
486.9115 3812.27335
487.1210 3818.56061
487.3306 3948.85238
487.5401 3910.08434
487.7496 3962.84001
487.9591 4019.75306
488.1686 3974.49295
488.3780 3910.30961
488.5875 4009.67706
488.7969 4107.87716
489.0063 4071.40283
489.2157 4141.56624
489.4251 4060.44620
489.6345 4029.27612
489.8438 4156.92601
490.0531 3976.54092
490.2625 4052.41816
490.4718 4133.04669
490.6811 4192.29443
490.8903 4227.94957
491.0996 4253.91781
491.3089 4264.42389
491.5181 4324.92089
491.7273 4328.07476
491.9365 4302.63899
492.1457 4380.11364
492.3549 4387.46585
492.5640 4324.63417
492.7732 4375.58763
492.9823 4436.06415
493.1914 4554.33435
493.4005 4532.07293
493.6096 4484.66245
493.8187 4454.25011
494.0277 4546.16295
494.2368 4559.16755
494.4458 4607.29482
494.6548 4653.80419
494.8638 4704.94197
495.0728 4684.78995
495.2817 4697.65120
495.4907 4712.19178
495.6996 4754.13418
495.9085 4758.59875
496.1174 4844.20384
496.3263 4831.11732
496.5352 4849.81528
496.7440 4959.56592
496.9529 4981.80686
497.1617 4909.71836
497.3705 4949.65375
497.5793 5064.91343
497.7881 4975.51960
497.9969 5065.20015
498.2056 5134.09382
498.4144 5153.71336
498.6231 5189.32754
498.8318 5211.91663
499.0405 5233.74798
499.2492 5214.66091
499.4578 5277.49259
499.6665 5284.29185
499.8751 5398.24083
500.0837 5390.70430
500.2923 5416.14007
500.5009 5443.84909
500.7095 5558.35102
500.9180 5509.71177
501.1266 5592.75690
501.3351 5604.14361
501.5436 5692.82065
501.7521 5668.55222
501.9606 5751.39256
502.1691 5810.84509
502.3775 5738.61323
502.5860 5818.56593
502.7944 5868.14726
503.0028 5914.90238
503.2112 5928.93097
503.4196 5981.99384
503.6279 6039.64416
503.8363 5972.71654
504.0446 6145.05311
504.2529 6113.59631
504.4612 6184.98850
504.6695 6277.51573
504.8778 6268.13603
505.0860 6290.25410
505.2943 6313.92862
505.5025 6389.49866
505.7107 6415.54882
505.9189 6481.84157
506.1271 6525.48379
506.3353 6544.73469
506.5434 6514.87531
506.7516 6610.69977
506.9597 6668.12481
507.1678 6740.80722
507.3759 6712.09470
507.5840 6765.89484
507.7920 6825.04018
508.0001 6844.25012
508.2081 6964.67069
508.4161 6939.78787
508.6241 7124.10505
508.8321 7094.24567
509.0401 7047.26527
509.2480 7185.05260
509.4560 7182.61552
509.6639 7272.09127
509.8718 7287.53296
510.0797 7420.79429
510.2876 7446.53725
510.4955 7531.13884
510.7033 7574.35098
510.9112 7602.96111
511.1190 7717.91359
511.3268 7669.74537
511.5346 7761.24861
511.7424 7795.53161
511.9501 7892.95348
512.1579 7928.26046
512.3656 7968.52353
512.5733 7923.40678
512.7810 8073.13377
512.9887 8173.25896
513.1964 8196.70821
513.4040 8237.19655
513.6117 8313.01235
513.8193 8390.83516
514.0269 8420.34639
514.2345 8549.22507
514.4421 8502.75666
514.6497 8498.12825
514.8572 8679.70116
515.0647 8713.63600
515.2723 8794.51028
515.4798 8833.01210
515.6873 8943.43857
515.8947 8998.89757
516.1022 8981.18264
516.3097 9060.56190
516.5171 9160.50278
516.7245 9250.01949
516.9319 9317.86870
517.1393 9348.40391
517.3467 9349.28454
517.5540 9365.13582
517.7614 9589.92087
517.9687 9621.74630
518.1760 9628.81179
518.3833 9813.51810
518.5906 9811.38821
518.7978 9973.17774
519.0051 9925.00951
519.2123 10108.09792
519.4196 9907.51986
519.6268 10118.41968
519.8340 10165.21577
520.0411 10225.81516
520.2483 10442.06018
520.4554 10424.71389
520.6626 10681.63157
520.8697 10628.50726
521.0768 10847.14840
521.2839 10794.49513
521.4909 10808.93331
521.6980 10986.71747
521.9050 11156.43264
522.1121 11083.17680
522.3191 11338.74282
522.5261 11328.74873
522.7331 11370.13818
522.9400 11583.65940
523.1470 11591.01161
523.3539 11685.89400
523.5608 11706.84473
523.7677 11723.12608
523.9746 11862.40843
524.1815 12136.54953
524.3884 12032.53320
524.5952 12037.91935
524.8020 12340.62961
525.0089 12268.37728
525.2157 12388.28585
525.4225 12473.44039
525.6292 12529.14514
525.8360 12622.71683
526.0427 12715.20310
526.2494 12890.61162
526.4562 12856.49246
526.6629 13013.59215
526.8695 13000.38275
527.0762 13248.16649
527.2829 13328.38542
527.4895 13411.36912
527.6961 13527.93950
527.9027 13676.29435
528.1093 13748.40333
528.3159 13777.40257
528.5224 13733.22788
528.7290 14124.61519
528.9355 13953.52788
529.1420 14341.59748
529.3485 14216.28227
529.5550 14416.53266
529.7615 14384.60482
529.9680 14546.02572
530.1744 14566.46445
530.3808 14780.33383
530.5872 14727.33240
530.7936 14904.05162
531.0000 14941.11985
531.2064 15131.74478
531.4127 15232.60725
531.6191 15355.42393
531.8254 15438.59194
532.0317 15651.41685
532.2380 15576.46120
532.4443 15728.52288
532.6505 15545.04536
532.8568 15854.73919
533.0630 16175.96309
533.2692 16104.71426
533.4754 16252.18849
533.6816 16404.41400
533.8878 16313.91427
534.0939 16677.08056
534.3001 16711.28164
534.5062 16823.10074
534.7123 16731.35174
534.9184 16857.11750
535.1245 16966.04895
535.3306 16987.49119
535.5366 17366.20157
535.7426 17393.99250
535.9487 17422.52071
536.1547 17449.67678
536.3607 17768.40215
536.5666 17645.87218
536.7726 17798.40489
536.9785 18007.99402
537.1845 18162.34942
537.3904 18032.54916
537.5963 18108.99983
537.8022 18322.82825
538.0080 18487.36206
538.2139 18583.41180
538.4197 18714.72755
538.6256 18686.89566
538.8314 18717.26703
539.0372 18886.12206
539.2430 19266.53225
539.4487 19070.60308
539.6545 19438.23395
539.8602 19324.42833
540.0659 19534.93904
540.2716 19947.64570
540.4773 20024.64932
540.6830 20120.28946
540.8887 20279.99007
541.0943 20032.86168
541.2999 20138.65974
541.5056 20206.71375
541.7112 20435.69713
541.9167 20289.49264
542.1223 20365.61564
542.3279 20754.83210
542.5334 20860.56873
542.7389 21083.03957
542.9444 21138.70336
543.1499 21222.91584
543.3554 21152.50667
543.5609 21540.59675
543.7663 21583.19450
543.9718 21434.16382
544.1772 21630.42066
544.3826 21657.47433
544.5880 22255.68600
544.7934 22071.10258
544.9987 22136.96525
545.2041 22559.62504
545.4094 22486.41016
545.6147 22473.28268
545.8200 22827.08976
546.0253 22748.63208
546.2306 23053.32887
546.4358 22879.04673
546.6411 23253.45637
546.8463 23086.77220
547.0515 23374.65517
547.2567 23524.46408
547.4619 23567.08231
547.6670 23686.33553
547.8722 23814.10830
548.0773 24135.12740
548.2824 24146.94418
548.4876 24260.46309
548.6926 24368.71872
548.8977 24473.84095
549.1028 24624.85817
549.3078 24815.33974
549.5129 24798.25968
549.7179 24925.23375
549.9229 25112.00850
550.1279 25009.71246
550.3328 25398.27357
550.5378 25033.34602
550.7427 25405.68721
550.9476 25591.17174
551.1526 25059.84673
551.3575 25650.80859
551.5623 25737.56055
551.7672 25628.97725
551.9720 25725.35466
552.1769 25914.21833
552.3817 26090.07741
552.5865 25943.58621
552.7913 26207.75370
552.9961 26057.30991
553.2008 26267.84110
553.4056 26581.54895
553.6103 26474.62450
553.8150 26746.94291
554.0197 26831.13490
554.2244 26700.65881
554.4291 26768.13938
554.6337 27199.07297
554.8384 26981.90636
555.0430 27195.07943
555.2476 26972.56763
555.4522 26982.47979
555.6568 27355.76306
555.8613 27503.17585
556.0659 27611.26764
556.2704 27349.92635
556.4750 27708.58711
556.6795 27892.18751
556.8839 27596.46083
557.0884 28097.90597
557.2929 27940.97013
557.4973 27790.44442
557.7018 27922.02642
557.9062 28106.65080
558.1106 28119.77828
558.3150 27989.19979
558.5193 28384.84687
558.7237 28463.83703
558.9280 28212.85846
559.1323 28426.21584
559.3367 28291.17278
559.5410 28547.16888
559.7452 28262.60362
559.9495 28642.39942
560.1537 28658.76270
560.3580 28534.36907
560.5622 28753.11262
560.7664 29006.22107
560.9706 28983.09951
561.1748 29111.91674
561.3789 29087.62783
561.5831 29153.71578
561.7872 29037.43212
561.9913 29313.43687
562.1954 29261.86901
562.3995 29435.76204
562.6036 29425.44028
562.8076 29206.02090
563.0117 29489.82841
563.2157 29401.39712
563.4197 29607.32038
563.6237 29822.11134
563.8277 29515.85810
564.0316 29292.07655
564.2356 29787.97170
564.4395 29711.86919
564.6434 29891.92660
564.8473 30109.31848
565.0512 30049.82499
565.2551 30020.49808
565.4590 30098.40281
565.6628 30337.91275
565.8666 30516.94618
566.0705 30295.76556
566.2743 30308.60632
566.4780 30387.86271
566.6818 30280.75395
566.8856 30817.07600
567.0893 30396.21842
567.2930 30564.95057
567.4967 30294.33198
567.7004 30465.74696
567.9041 30687.37814
568.1078 30686.02648
568.3114 30885.43720
568.5151 30802.02343
568.7187 30478.71060
568.9223 30686.98903
569.1259 30863.68777
569.3295 31187.69691
569.5330 31178.01001
569.7366 31170.49397
569.9401 31246.00258
570.1436 31354.85212
570.3471 31429.84873
570.5506 31404.76111
570.7541 31355.60986
570.9575 31346.08681
571.1609 30998.54651
571.3644 31612.50706
571.5678 31526.43094
571.7712 31936.98723
571.9746 31806.20395
572.1779 31544.43258
572.3813 31444.49171
572.5846 31715.62229
572.7879 31621.21093
572.9912 32258.90744
573.1945 32093.55444
573.3978 31719.88207
573.6010 32043.74784
573.8043 32546.29890
574.0075 31692.13209
574.2107 31858.40667
574.4139 31846.26222
574.6171 31985.21690
574.8203 31828.36297
575.0234 32234.57757
575.2266 31679.47564
575.4297 31844.07089
575.6328 32008.11319
575.8359 32359.97470
576.0390 31694.75349
576.2420 31801.80082
576.4451 31561.18497
576.6481 31922.50809
576.8512 32423.01118
577.0542 31702.61769
577.2571 32160.50254
577.4601 32189.29698
577.6631 32041.31076
577.8660 31887.89742
578.0689 31787.17832
578.2719 31954.00585
578.4748 31753.65307
578.6776 31709.53982
578.8805 31849.19081
579.0834 31332.77501
579.2862 31817.24250
579.4890 32184.56617
579.6918 32003.83293
579.8946 31669.15388
580.0974 32128.45183
580.3002 31770.83553
580.5029 31626.61757
580.7057 32056.01518
580.9084 31544.06395
581.1111 32177.07061
581.3138 31889.41292
581.5164 31692.99224
581.7191 31518.03427
581.9217 31602.94305
582.1244 31676.71088
582.3270 31708.94591
582.5296 31665.93857
582.7322 31903.31863
582.9347 31756.66358
583.1373 31513.56969
583.3398 31759.08019
583.5424 31469.59980
583.7449 31367.59048
583.9474 31286.26564
584.1498 31244.65092
584.3523 31683.36678
584.5548 31312.11101
584.7572 31550.37169
584.9596 31701.75754
585.1620 32265.21518
585.3644 31352.23072
585.5668 31473.30663
585.7691 31802.76336
585.9715 31614.45263
586.1738 31846.20078
586.3761 31825.92589
586.5784 32043.29729
586.7807 31959.55585
586.9830 31984.09051
587.1852 31927.11602
587.3875 31603.51648
587.5897 32163.59497
587.7919 31882.61366
587.9941 31564.46172
588.1963 31688.44575
588.3984 32072.86996
588.6006 31537.36709
588.8027 32092.40758
589.0048 31765.14218
589.2069 31927.79185
589.4090 31935.81989
589.6111 32136.93042
589.8131 32092.07991
590.0152 32243.67055
590.2172 32172.21692
590.4192 32472.28530
590.6212 32180.04016
590.8232 31932.52266
591.0252 32337.09889
591.2271 32469.37719
591.4291 32433.16910
591.6310 32264.27312
591.8329 32249.48678
592.0348 32602.31084
592.2367 32600.13999
592.4385 32967.36127
592.6404 33028.32930
592.8422 33108.03624
593.0440 33202.14041
593.2458 33457.41971
593.4476 33617.75519
593.6494 33635.36772
593.8512 33786.79453
594.0529 34056.06146
594.2546 34021.02071
594.4563 33899.06417
594.6580 33679.70624
594.8597 33611.42696
595.0614 33712.76046
595.2630 34019.23898
595.4647 33974.73662
595.6663 33649.66254
595.8679 34007.01261
596.0695 34480.05243
596.2711 34267.16608
596.4727 34383.49070
596.6742 34645.75358
596.8757 34784.27819
597.0773 34674.44562
597.2788 34320.04463
597.4802 34661.46150
597.6817 35211.44351
597.8832 34900.02938
598.0846 35220.59793
598.2860 35138.43342
598.4875 34845.18478
598.6889 35428.93779
598.8902 35471.04403
599.0916 35590.19485
599.2930 35199.70865
599.4943 35734.06465
599.6956 35736.15358
599.8969 35486.38331
600.0982 35175.17398
600.2995 35309.76649
600.5008 36074.55994
600.7020 35410.46511
600.9032 35946.00894
601.1045 35763.78068
601.3057 35428.81491
601.5068 36150.04807
601.7080 36147.05803
601.9092 35936.01485
602.1103 36453.37272
602.3115 36381.75525
602.5126 36553.80510
602.7137 36474.42584
602.9147 36416.55024
603.1158 36691.98156
603.3169 36897.10611
603.5179 36752.72431
603.7189 36594.27297
603.9199 36772.83536
604.1209 36774.06414
604.3219 36723.88891
604.5229 36753.76877
604.7238 37036.53182
604.9247 37014.24992
605.1257 37190.41619
605.3266 37402.50383
605.5275 37010.52262
605.7283 37131.39373
605.9292 37327.56866
606.1300 36751.82320
606.3309 36943.71788
606.5317 37338.38193
606.7325 37492.32774
606.9332 37428.92263
607.1340 37728.45854
607.3348 37635.68556
607.5355 37080.78842
607.7362 38091.78868
607.9369 37355.09336
608.1376 37652.94993
608.3383 37369.90017
608.5390 38246.38984
608.7396 37866.67595
608.9402 38411.80427
609.1409 38457.24870
609.3415 38062.52320
609.5421 37945.25651
609.7426 38264.88300
609.9432 37784.77768
610.1437 37658.02890
610.3443 38515.98444
610.5448 38197.97586
610.7453 38529.80823
610.9457 38298.28537
611.1462 38477.72839
611.3467 38327.50988
611.5471 38702.16528
611.7475 38170.98363
611.9479 38968.21690
612.1483 38440.72159
612.3487 39010.17978
612.5491 38832.74377
612.7494 39424.91393
612.9497 38808.82350
613.1501 39193.69826
613.3504 38970.85878
613.5506 39662.43735
613.7509 39351.78097
613.9512 39159.76342
614.1514 39378.52744
614.3516 39782.03872
614.5519 39561.45201
614.7521 39727.17364
614.9522 39343.05662
615.1524 39355.03724
615.3526 39848.70011
615.5527 40438.67895
615.7528 40017.61657
615.9529 40079.09659
616.1530 40499.50362
616.3531 40500.32280
616.5532 40326.02018
616.7532 39979.31955
616.9532 40263.49570
617.1533 40063.85970
617.3533 40492.80676
617.5532 40143.58713
617.7532 40334.51925
617.9532 39573.94462
618.1531 40581.85244
618.3530 39985.25866
618.5530 40268.39034
618.7528 40404.37547
618.9527 40482.71027
619.1526 40098.30654
619.3524 40095.41890
619.5523 40426.20682
619.7521 40526.59824
619.9519 40568.92976
620.1517 40588.91793
620.3515 40923.39219
620.5512 41186.43330
620.7510 40966.66577
620.9507 40677.98409
621.1504 40696.78445
621.3501 40795.55798
621.5498 41025.54487
621.7495 41177.93422
621.9492 40776.08180
622.1488 40566.22644
622.3484 40605.91607
622.5480 40534.27813
622.7476 41239.35281
622.9472 40542.81816
623.1468 40790.00798
623.3463 41932.71311
623.5459 41604.89475
623.7454 41327.08779
623.9449 41375.54273
624.1444 41333.74369
624.3439 41746.55275
624.5433 41496.92584
624.7428 41280.76274
624.9422 41398.02943
625.1416 41507.37048
625.3410 41474.99209
625.5404 41314.63614
625.7398 41389.50988
625.9391 41655.88917
626.1385 41236.44469
626.3378 41359.87577
626.5371 42032.81782
626.7364 41378.06173
626.9357 41810.71561
627.1350 41748.12968
627.3342 41400.63035
627.5335 41139.37097
627.7327 41386.49936
627.9319 41387.01135
628.1311 42441.01895
628.3303 41658.34673
628.5294 41909.93970
628.7286 42003.77762
628.9277 42324.55097
629.1268 41988.49978
629.3259 42632.05348
629.5250 42633.93761
629.7241 42539.03474
629.9231 41747.43338
630.1222 42647.63852
630.3212 42432.17173
630.5202 42004.90401
630.7192 42616.59131
630.9182 41999.92744
631.1171 42241.05528
631.3161 42035.43922
631.5150 41927.67510
631.7140 42191.14628
631.9129 42358.50629
632.1118 42750.81518
632.3106 42621.21972
632.5095 42408.92728
632.7083 42378.12583
632.9072 42477.32944
633.1060 42575.65242
633.3048 42592.48672
633.5036 42074.22775
633.7023 42448.49404
633.9011 42860.15624
634.0998 42715.54916
634.2986 42895.38130
634.4973 42593.85886
634.6960 42786.49080
634.8947 42582.16496
635.0933 42890.09754
635.2920 42539.28049
635.4906 42174.78301
635.6892 42976.70614
635.8878 43002.79726
636.0864 42991.18528
636.2850 42720.09565
636.4836 42710.06061
636.6821 42726.69011
636.8806 42967.10116
637.0792 42856.03982
637.2777 42874.41010
637.4761 42907.09568
637.6746 42643.91122
637.8731 42983.91499
638.0715 42514.19287
638.2699 43197.98916
638.4683 42863.65826
638.6667 42205.50255
638.8651 43045.43597
639.0635 43204.68602
639.2618 43211.26000
639.4602 43143.22648
639.6585 43009.55556
639.8568 43189.55153
640.0551 43245.21532
640.2534 43106.42448
640.4516 42926.79714
640.6499 43114.28868
640.8481 43778.81358
641.0463 43550.87466
641.2445 43866.73288
641.4427 43638.13860
641.6409 43425.78473
641.8390 43703.91936
642.0372 44019.69566
642.2353 43812.35931
642.4334 43281.56677
642.6315 43545.93905
642.8296 43508.72746
643.0277 43340.75306
643.2257 43971.58888
643.4237 44043.00155
643.6218 43927.55755
643.8198 43659.62180
644.0178 43797.26578
644.2157 43693.90479
644.4137 43624.64249
644.6116 44364.26640
644.8096 44649.20030
