# Averages = 100
# wavelength [µm]	intensity
446.8250 14.33578
447.0374 36746.70328
447.2498 1231.81224
447.4621 1225.77074
447.6745 1231.93512
447.8868 1239.59452
448.0992 1236.97312
448.3115 1231.89416
448.5238 1241.45818
448.7360 1234.47460
448.9483 1244.18197
449.1606 1236.31777
449.3728 1258.39488
449.5850 1234.41316
449.7972 1249.19950
450.0094 1239.65596
450.2216 1257.55521
450.4337 1247.82736
450.6459 1774.44204
450.8580 2136.95299
451.0701 2194.00940
451.2822 2206.42009
451.4943 2197.01992
451.7064 2174.75850
451.9184 2173.55019
452.1305 2268.16635
452.3425 2372.30556
452.5545 2273.77778
452.7665 2287.37630
452.9785 2388.44355
453.1905 2415.00571
453.4024 2374.96792
453.6143 2490.86247
453.8263 2483.44883
454.0382 2685.07135
454.2501 2468.68297
454.4619 2441.56786
454.6738 2586.60501
454.8856 2719.66154
455.0975 2508.96652
455.3093 2520.16890
455.5211 2576.59044
455.7329 2546.58770
455.9446 2613.88395
456.1564 2619.92546
456.3681 2720.58313
456.5798 2826.03304
456.7916 2756.99601
457.0033 2721.44327
457.2149 2702.68388
457.4266 2738.05230
457.6382 2766.47811
457.8499 2745.42499
458.0615 2879.58742
458.2731 2755.89011
458.4847 2883.31472
458.6963 2993.04489
458.9078 3025.44375
459.1194 3190.12092
459.3309 3215.18806
459.5424 3051.24816
459.7539 2935.45601
459.9654 2954.03108
460.1769 3001.13437
460.3883 2989.41998
460.5998 2867.09481
460.8112 2831.46015
461.0226 2897.56859
461.2340 2991.63179
461.4454 2948.95212
461.6567 2930.49992
461.8681 2935.49697
462.0794 2882.88465
462.2907 3025.81239
462.5020 3295.32508
462.7133 3393.60710
462.9246 3143.91875
463.1359 3004.39064
463.3471 2873.79167
463.5583 2930.74568
463.7696 3346.05326
463.9808 3194.38070
464.1919 3117.47947
464.4031 3109.16472
464.6143 3144.79937
464.8254 3048.81108
465.0365 2999.94654
465.2476 3287.09224
465.4587 3457.66756
465.6698 3017.06756
465.8809 3085.46972
466.0919 3078.34279
466.3030 3139.96617
466.5140 3165.70913
466.7250 3095.32045
466.9360 3230.60926
467.1469 3172.34455
467.3579 2948.33773
467.5688 2926.77262
467.7798 3184.67332
467.9907 3309.06695
468.2016 3191.55450
468.4125 3146.70398
468.6233 2992.41002
468.8342 3025.40280
469.0450 3204.14951
469.2559 3314.22783
469.4667 3265.28138
469.6775 2995.44101
469.8882 3178.97997
470.0990 3141.62502
470.3098 3444.76536
470.5205 3245.10888
470.7312 3337.10364
470.9419 3568.03260
471.1526 3450.92974
471.3633 3148.69051
471.5739 3181.92905
471.7846 3175.41651
471.9952 3093.19056
472.2058 3216.74452
472.4164 3183.17831
472.6270 3162.63718
472.8376 3311.62691
473.0481 3504.77084
473.2587 3584.00675
473.4692 3504.03357
473.6797 3371.77575
473.8902 3120.71526
474.1007 3094.54222
474.3111 3121.14533
474.5216 3055.26218
474.7320 3177.85359
474.9424 3349.26857
475.1528 3406.50930
475.3632 3268.55813
475.5736 3223.05226
475.7840 3228.00834
475.9943 3269.19300
476.2046 3304.33614
476.4149 3375.11394
476.6252 3391.90728
476.8355 3510.30036
477.0458 3591.17464
477.2561 3570.01913
477.4663 3414.25062
477.6765 3430.63437
477.8867 3448.34930
478.0969 3438.68289
478.3071 3436.71684
478.5173 3530.45237
478.7274 3491.82768
478.9375 3551.56693
479.1477 3529.03927
479.3578 3674.42457
479.5679 3625.41668
479.7779 3655.76758
479.9880 3641.96427
480.1980 3700.92529
480.4081 3715.93690
480.6181 3565.61599
480.8281 3705.36938
481.0381 3622.93864
481.2480 3625.25284
481.4580 3712.63967
481.6679 3666.76517
481.8778 3611.94105
482.0877 3646.06020
482.2976 3542.69922
482.5075 3628.20192
482.7174 3711.57472
482.9272 3792.28517
483.1371 3651.58972
483.3469 3696.33784
483.5567 3841.76410
483.7665 3705.14410
483.9762 3762.69203
484.1860 3911.98895
484.3957 3913.19725
484.6055 3766.56269
484.8152 3849.95597
485.0249 3960.99684
485.2346 3951.37139
485.4442 3939.88228
485.6539 3982.68483
485.8635 3964.76510
486.0732 3835.86595
486.2828 3872.23787
486.4924 3856.69379
486.7019 3988.21434
486.9115 3930.40019
487.1210 3938.96070
487.3306 4076.27700
487.5401 4064.05063
487.7496 4124.13803
487.9591 4160.96051
488.1686 4087.41795
488.3780 4037.87759
488.5875 4146.68617
488.7969 4262.00729
489.0063 4216.56286
489.2157 4285.59989
489.4251 4206.01582
489.6345 4199.74904
489.8438 4294.20135
490.0531 4116.04855
490.2625 4183.11953
490.4718 4282.11834
490.6811 4335.36553
490.8903 4371.38930
491.0996 4401.94499
491.3089 4408.19130
491.5181 4476.26578
491.7273 4475.97906
491.9365 4463.15878
492.1457 4540.94063
492.3549 4557.59062
492.5640 4464.87907
492.7732 4538.27827
492.9823 4591.91457
493.1914 4717.76225
493.4005 4701.50138
493.6096 4653.70179
493.8187 4627.52875
494.0277 4722.59546
494.2368 4726.24084
494.4458 4766.21719
494.6548 4829.06935
494.8638 4876.11120
495.0728 4850.96214
495.2817 4859.19497
495.4907 4892.53590
495.6996 4922.78440
495.9085 4951.21021
496.1174 5013.36606
496.3263 5023.11439
496.5352 5023.56495
496.7440 5129.21965
496.9529 5185.68215
497.1617 5113.30694
497.3705 5143.96503
497.5793 5261.57987
497.7881 5162.39675
497.9969 5272.70034
498.2056 5327.56543
498.4144 5353.30839
498.6231 5400.78031
498.8318 5408.00964
499.0405 5448.27270
499.2492 5418.90483
499.4578 5482.67858
499.6665 5485.25902
499.8751 5630.13233
500.0837 5613.76906
500.2923 5632.36462
500.5009 5665.39835
500.7095 5786.65858
500.9180 5724.83040
501.1266 5809.39103
501.3351 5837.83732
501.5436 5918.11770
501.7521 5885.14540
501.9606 5979.70012
502.1691 6020.20894
502.3775 5999.91357
502.5860 6071.38768
502.7944 6092.97327
503.0028 6159.26602
503.2112 6166.43391
503.4196 6226.35747
503.6279 6284.21259
503.8363 6231.10876
504.0446 6397.67006
504.2529 6359.41400
504.4612 6446.63699
504.6695 6535.08876
504.8778 6548.44152
505.0860 6563.98560
505.2943 6579.12009
505.5025 6667.36706
505.7107 6687.84675
505.9189 6754.65149
506.1271 6798.58042
506.3353 6816.39775
506.5434 6784.55183
506.7516 6924.28474
506.9597 6955.02475
507.1678 7028.99738
507.3759 6993.75184
507.5840 7063.73093
507.7920 7143.21260
508.0001 7152.63326
508.2081 7279.48444
508.4161 7254.78594
508.6241 7441.84740
508.8321 7403.36607
509.0401 7362.55005
509.2480 7528.72224
509.4560 7518.68719
509.6639 7591.59488
509.8718 7620.75795
510.0797 7767.20820
510.2876 7776.44454
510.4955 7868.11162
510.7033 7927.03168
510.9112 7959.41007
511.1190 8074.19872
511.3268 8012.84157
511.5346 8086.58893
511.7424 8131.58280
511.9501 8268.57143
512.1579 8284.75038
512.3656 8339.88170
512.5733 8309.85848
512.7810 8445.10634
512.9887 8541.31991
513.1964 8563.11030
513.4040 8627.53939
513.6117 8687.48344
513.8193 8778.43373
514.0269 8814.51894
514.2345 8922.26257
514.4421 8875.42553
514.6497 8888.49157
514.8572 9076.12647
515.0647 9119.93252
515.2723 9195.78928
515.4798 9259.17391
515.6873 9347.40041
515.8947 9416.58079
516.1022 9376.72732
516.3097 9479.06432
516.5171 9598.01034
516.7245 9674.09238
516.9319 9743.72332
517.1393 9794.75870
517.3467 9794.82014
517.5540 9809.27880
517.7614 10051.12343
517.9687 10066.99519
518.1760 10092.73815
518.3833 10257.88635
518.5906 10279.12379
518.7978 10469.72824
519.0051 10410.37811
519.2123 10614.82683
519.4196 10389.40691
519.6268 10607.80230
519.8340 10650.68676
520.0411 10742.62008
520.2483 10964.16934
520.4554 10923.06660
520.6626 11207.67282
520.8697 11151.10793
521.0768 11380.86954
521.2839 11306.58971
521.4909 11357.23598
521.6980 11559.43193
521.9050 11752.00244
522.1121 11643.23482
522.3191 11899.21043
522.5261 11882.68332
522.7331 11919.11669
522.9400 12159.99877
523.1470 12167.08474
523.3539 12286.39940
523.5608 12273.23096
523.7677 12325.18793
523.9746 12440.14042
524.1815 12736.66581
524.3884 12644.99873
524.5952 12671.86808
524.8020 12974.94697
525.0089 12867.05998
525.2157 13026.82202
525.4225 13133.97175
525.6292 13153.01786
525.8360 13220.66227
526.0427 13355.11141
526.2494 13528.90204
526.4562 13497.99819
526.6629 13638.79605
526.8695 13645.86154
527.0762 13914.55504
527.2829 14007.73762
527.4895 14076.05785
527.6961 14207.16881
527.9027 14359.61961
528.1093 14398.69485
528.3159 14470.90623
528.5224 14425.27748
528.7290 14796.75854
528.9355 14647.99409
529.1420 15077.61697
529.3485 14948.30822
529.5550 15197.30026
529.7615 15151.69200
529.9680 15331.81085
530.1744 15359.25363
530.3808 15563.00604
530.5872 15497.57344
530.7936 15657.45836
531.0000 15733.60184
531.2064 15922.21976
531.4127 16048.94807
531.6191 16166.33764
531.8254 16250.40675
532.0317 16474.59789
532.2380 16431.16048
532.4443 16562.92679
532.6505 16372.77289
532.8568 16648.34756
533.0630 17009.03582
533.2692 16916.38571
533.4754 17078.70772
533.6816 17310.35346
533.8878 17195.91297
534.0939 17573.92704
534.3001 17580.72630
534.5062 17669.66958
534.7123 17598.05211
534.9184 17731.72303
535.1245 17883.80519
535.3306 17891.83323
535.5366 18295.61075
535.7426 18316.93010
535.9487 18350.94686
536.1547 18349.28801
536.3607 18670.45047
536.5666 18559.12289
536.7726 18690.72536
536.9785 18902.81300
537.1845 19088.56377
537.3904 19008.05812
537.5963 19092.31155
537.8022 19270.54627
538.0080 19474.31916
538.2139 19537.02796
538.4197 19723.37264
538.6256 19648.78562
538.8314 19737.81082
539.0372 19886.30903
539.2430 20255.90595
539.4487 20061.88140
539.6545 20476.18547
539.8602 20343.74333
540.0659 20571.23170
540.2716 21002.96400
540.4773 21049.51433
540.6830 21173.21164
540.8887 21306.30913
541.0943 21053.20067
541.2999 21215.25644
541.5056 21220.47876
541.7112 21552.43401
541.9167 21364.30760
542.1223 21472.58371
542.3279 21880.47765
542.5334 21979.66077
542.7389 22226.19525
542.9444 22276.26809
543.1499 22400.47739
543.3554 22322.53170
543.5609 22716.66329
543.7663 22717.50295
543.9718 22591.65527
544.1772 22788.11692
544.3826 22819.94235
544.5880 23508.26465
544.7934 23296.38180
544.9987 23365.78746
545.2041 23788.81589
545.4094 23701.71578
545.6147 23769.52402
545.8200 24115.65122
546.0253 24083.90770
546.2306 24382.05099
546.4358 24153.62056
546.6411 24482.34002
546.8463 24376.09140
547.0515 24657.70759
547.2567 24843.04876
547.4619 24849.86850
547.6670 24938.75034
547.8722 25116.39115
548.0773 25433.90822
548.2824 25458.62721
548.4876 25588.16123
548.6926 25718.02293
548.8977 25833.71268
549.1028 25934.30891
549.3078 26136.21815
549.5129 26114.96023
549.7179 26296.41026
549.9229 26463.11492
550.1279 26357.84933
550.3328 26753.23017
550.5378 26423.28193
550.7427 26775.71687
550.9476 26971.78940
551.1526 26414.10703
551.3575 27023.93068
551.5623 27119.30459
551.7672 27033.76093
551.9720 27134.88963
552.1769 27372.39256
552.3817 27574.15845
552.5865 27431.39454
552.7913 27704.47070
552.9961 27556.21824
553.2008 27778.91436
553.4056 28081.76798
553.6103 28011.91177
553.8150 28240.83371
554.0197 28315.46169
554.2244 28206.61215
554.4291 28317.28439
554.6337 28672.81176
554.8384 28497.79235
555.0430 28731.93662
555.2476 28479.42207
555.4522 28559.82533
555.6568 28936.89733
555.8613 29081.21769
556.0659 29200.24563
556.2704 28924.17945
556.4750 29291.72840
556.6795 29538.67247
556.8839 29197.93143
557.0884 29726.38928
557.2929 29592.80028
557.4973 29376.49382
557.7018 29559.90990
557.9062 29775.66341
558.1106 29795.28295
558.3150 29583.95306
558.5193 29991.47836
558.7237 30103.05170
558.9280 29869.13271
559.1323 30059.42996
559.3367 29871.32403
559.5410 30218.29090
559.7452 29958.87470
559.9495 30278.43974
560.1537 30292.38641
560.3580 30230.06672
560.5622 30393.18743
560.7664 30663.92890
560.9706 30752.66738
561.1748 30868.95105
561.3789 30853.69368
561.5831 30867.94755
561.7872 30802.98598
561.9913 31124.84475
562.1954 30961.64212
562.3995 31088.45234
562.6036 31179.13640
562.8076 30951.03364
563.0117 31216.65518
563.2157 31099.44993
563.4197 31260.03116
563.6237 31555.14346
563.8277 31186.65244
564.0316 30997.35869
564.2356 31413.21923
564.4395 31430.64744
564.6434 31678.34926
564.8473 31884.96883
565.0512 31839.64728
565.2551 31809.66502
565.4590 31923.12248
565.6628 32123.55719
565.8666 32308.32493
566.0705 32069.08122
566.2743 32063.83842
566.4780 32142.29610
566.6818 31993.98220
566.8856 32614.61913
567.0893 32170.10752
567.2930 32369.62063
567.4967 32110.49115
567.7004 32298.59707
567.9041 32379.20512
568.1078 32388.42098
568.3114 32618.89939
568.5151 32586.74628
568.7187 32277.15484
568.9223 32486.23197
569.1259 32679.70358
569.3295 33016.16437
569.5330 32988.47583
569.7366 32925.95134
569.9401 33015.85717
570.1436 33121.20468
570.3471 33238.49185
570.5506 33188.89005
570.7541 33109.30598
570.9575 33083.23534
571.1609 32796.70403
571.3644 33419.02030
571.5678 33354.12017
571.7712 33785.85246
571.9746 33605.36497
572.1779 33404.21348
572.3813 33239.00385
572.5846 33510.05251
572.7879 33383.18085
572.9912 34006.23438
573.1945 33893.24794
573.3978 33476.26103
573.6010 33784.37792
573.8043 34354.69626
574.0075 33534.13662
574.2107 33657.87489
574.4139 33606.57328
574.6171 33744.60637
574.8203 33601.28952
575.0234 34063.16791
575.2266 33487.89349
575.4297 33615.50242
575.6328 33838.99725
575.8359 34223.03235
576.0390 33568.35818
576.2420 33671.18669
576.4451 33420.20812
576.6481 33730.70066
576.8512 34233.76371
577.0542 33492.27614
577.2571 33991.30469
577.4601 33996.50653
577.6631 33900.27247
577.8660 33736.61929
578.0689 33701.66047
578.2719 33828.26589
578.4748 33606.16368
578.6776 33561.31317
578.8805 33759.67942
579.0834 33227.92433
579.2862 33787.08124
579.4890 34099.35552
579.6918 33853.35351
579.8946 33561.74324
580.0974 33973.48736
580.3002 33675.03687
580.5029 33589.28842
580.7057 33955.87483
580.9084 33514.82428
581.1111 34069.61901
581.3138 33809.79322
581.5164 33557.81114
581.7191 33365.36352
581.9217 33526.86633
582.1244 33539.91189
582.3270 33579.35577
582.5296 33574.46113
582.7322 33792.52884
582.9347 33664.71511
583.1373 33458.97617
583.3398 33735.88202
583.5424 33369.19322
583.7449 33307.79512
583.9474 33153.31683
584.1498 33137.36316
584.3523 33606.16368
584.5548 33209.96365
584.7572 33448.65441
584.9596 33652.89833
585.1620 34264.83139
585.3644 33346.56316
585.5668 33371.44598
585.7691 33655.54021
585.9715 33537.63865
586.1738 33767.03163
586.3761 33731.31505
586.5784 33919.44146
586.7807 33925.44201
586.9830 33934.90363
587.1852 33847.27104
587.3875 33515.99162
587.5897 34200.93477
587.7919 33899.55569
587.9941 33558.05690
588.1963 33707.39478
588.3984 34059.70684
588.6006 33416.21458
588.8027 34143.05917
589.0048 33767.50266
589.2069 33893.45274
589.4090 33897.44628
589.6111 34114.30569
589.8131 34071.13451
590.0152 34212.42387
590.2172 34140.21249
590.4192 34420.96853
590.6212 34100.89149
590.8232 33924.21323
591.0252 34312.46715
591.2271 34464.87698
591.4291 34418.59289
591.6310 34280.12972
591.8329 34170.09236
592.0348 34571.98575
592.2367 34583.70013
592.4385 34935.68452
592.6404 35011.02929
592.8422 35154.20278
593.0440 35252.15713
593.2458 35512.84307
593.4476 35694.86653
593.6494 35695.72668
593.8512 35890.77522
594.0529 36194.93954
594.2546 36040.70701
594.4563 35970.64600
594.6580 35724.78735
594.8597 35708.64936
595.0614 35735.58015
595.2630 36092.93022
595.4647 36041.73100
595.6663 35796.20002
595.8679 36174.27554
596.0695 36612.02886
596.2711 36342.63905
596.4727 36444.70981
596.6742 36767.92024
596.8757 36978.67670
597.0773 36758.82726
597.2788 36389.12794
597.4802 36775.51820
597.6817 37274.28051
597.8832 37027.47980
598.0846 37399.57524
598.2860 37262.60709
598.4875 36960.90033
598.6889 37516.02274
598.8902 37635.25548
599.0916 37710.00634
599.2930 37310.85723
599.4943 37859.87670
599.6956 37907.79916
599.8969 37773.04282
600.0982 37330.74301
600.2995 37409.93796
600.5008 38254.17212
600.7020 37645.61820
600.9032 38235.31033
601.1045 38018.43044
601.3057 37681.99013
601.5068 38497.18409
601.7080 38486.45273
601.9092 38142.33255
602.1103 38716.11195
602.3115 38494.37837
602.5126 38655.71735
602.7137 38489.77044
602.9147 38560.20009
603.1158 38862.56220
603.3169 39137.01049
603.5179 38985.25600
603.7189 38833.15336
603.9199 39004.03588
604.1209 38960.12743
604.3219 38856.17253
604.5229 38964.59200
604.7238 39199.63737
604.9247 39194.98848
605.1257 39383.09441
605.3266 39701.84027
605.5275 39264.92662
605.7283 39449.46908
605.9292 39692.93160
606.1300 39042.18953
606.3309 39251.84010
606.5317 39745.03193
606.7325 39919.88750
606.9332 39758.05701
607.1340 39978.39797
607.3348 39930.06591
607.5355 39369.33206
607.7362 40461.78003
607.9369 39650.08810
608.1376 40019.00919
608.3383 39814.74479
608.5390 40641.87840
608.7396 40184.48506
608.9402 40866.19242
609.1409 40861.23634
609.3415 40548.02000
609.5421 40380.98767
609.7426 40760.08716
609.9432 40126.24083
610.1437 40023.92431
610.3443 41019.31905
610.5448 40653.77710
610.7453 41060.21698
610.9457 40912.39460
611.1462 41061.44576
611.3467 40887.28650
611.5471 41291.84225
611.7475 40642.16512
611.9479 41437.06371
612.1483 40955.81153
612.3487 41557.89387
612.5491 41332.59682
612.7494 42095.71094
612.9497 41338.02394
613.1501 41738.83191
613.3504 41588.53148
613.5506 42363.11422
613.7509 41885.01592
613.9512 41702.54190
614.1514 41959.74630
614.3516 42404.54463
614.5519 42150.04355
614.7521 42372.55536
614.9522 42011.31415
615.1524 41957.61641
615.3526 42514.76631
615.5527 43080.14904
615.7528 42629.45256
615.9529 42675.30658
616.1530 43152.17610
616.3531 43091.14663
616.5532 43031.50978
616.7532 42655.21600
616.9532 43041.89298
617.1533 42679.99643
617.3533 43207.63509
617.5532 42801.23617
617.7532 43042.44593
617.9532 42219.06010
618.1531 43344.19365
618.3530 42766.19543
618.5530 43034.11070
618.7528 43136.65250
618.9527 43220.02530
619.1526 42759.47809
619.3524 42909.53276
619.5523 43179.45504
619.7521 43368.27776
619.9519 43363.97703
620.1517 43412.45245
620.3515 43757.51470
620.5512 44037.57443
620.7510 43777.29808
620.9507 43423.63436
621.1504 43559.80380
621.3501 43602.03292
621.5498 43840.72367
621.7495 43943.67506
621.9492 43536.66175
622.1488 43247.07897
622.3484 43249.47510
622.5480 43245.80923
622.7476 44058.38179
622.9472 43179.51648
623.1468 43521.42487
623.3463 44727.47366
623.5459 44302.52015
623.7454 44114.96717
623.9449 43954.03778
624.1444 43909.26919
624.3439 44440.73756
624.5433 44181.93575
624.7428 43927.33227
624.9422 44078.06277
625.1416 44155.78319
625.3410 44177.53261
625.5404 44018.67168
625.7398 44032.90506
625.9391 44356.64796
626.1385 43982.19735
626.3378 44114.02510
626.5371 44705.21224
626.7364 44008.24752
626.9357 44423.71894
627.1350 44523.20926
627.3342 44184.80290
627.5335 43981.46009
627.7327 44181.32136
627.9319 44194.67411
628.1311 45216.69244
628.3303 44412.86470
628.5294 44654.15638
628.7286 44731.50816
628.9277 45113.06522
629.1268 44751.88545
629.3259 45404.32733
629.5250 45396.74985
629.7241 45407.74744
629.9231 44585.20127
630.1222 45533.28793
630.3212 45314.36007
630.5202 44878.67520
630.7192 45547.99234
630.9182 44783.69040
631.1171 45052.67062
631.3161 44829.38059
631.5150 44853.73094
631.7140 45197.42105
631.9129 45248.96842
632.1118 45716.08962
632.3106 45610.76258
632.5095 45303.62871
632.7083 45211.18340
632.9072 45352.12461
633.1060 45511.57946
633.3048 45514.01654
633.5036 44951.78768
633.7023 45210.69189
633.9011 45746.48147
634.0998 45571.89214
634.2986 45759.03552
634.4973 45448.60442
634.6960 45622.49745
634.8947 45364.80154
635.0933 45748.11985
635.2920 45289.57965
635.4906 44838.57597
635.6892 45796.00136
635.8878 45750.96653
636.0864 45663.02675
636.2850 45465.13153
636.4836 45504.18629
636.6821 45539.39087
636.8806 45632.06146
637.0792 45602.22255
637.2777 45606.78953
637.4761 45609.84100
637.6746 45316.92003
637.8731 45782.30045
638.0715 45284.23445
638.2699 46042.84303
638.4683 45740.39901
638.6667 44964.68988
638.8651 45893.66899
639.0635 46107.14925
639.2618 46116.54943
639.4602 45977.79954
639.6585 45835.44524
639.8568 46085.56366
640.0551 46160.15068
640.2534 46087.95978
640.4516 45942.22633
640.6499 46032.58271
640.8481 46769.35995
641.0463 46525.52879
641.2445 46877.61557
641.4427 46661.88255
641.6409 46389.56414
641.8390 46706.26203
642.0372 47021.30106
642.2353 46825.65861
642.4334 46245.38714
642.6315 46571.60808
642.8296 46514.96127
643.0277 46355.52690
643.2257 47030.51692
643.4237 47073.42187
643.6218 46986.23984
643.8198 46703.19007
644.0178 46740.85222
644.2157 46685.31131
644.4137 46574.00421
644.6116 47396.77565
644.8096 47643.65828
