# Averages = 100
# wavelength [µm]	intensity
446.8250 14.33578
447.0374 36746.70328
447.2498 1234.22885
447.4621 1221.36760
447.6745 1232.69287
447.8868 1246.35282
448.0992 1240.86427
448.3115 1226.28273
448.5238 1240.41371
448.7360 1240.14748
448.9483 1244.91924
449.1606 1238.18143
449.3728 1267.54930
449.5850 1232.77479
449.7972 1243.64950
450.0094 1243.56758
450.2216 1254.58566
450.4337 1250.77643
450.6459 1725.37271
450.8580 2084.81171
451.0701 2122.71961
451.2822 2148.66737
451.4943 2136.01093
451.7064 2113.50375
451.9184 2098.18494
452.1305 2205.08891
452.3425 2304.72259
452.5545 2205.55995
452.7665 2211.97009
452.9785 2303.08422
453.1905 2350.06462
453.4024 2306.32001
453.6143 2408.96420
453.8263 2399.07251
454.0382 2604.91385
454.2501 2389.93857
454.4619 2365.83398
454.6738 2500.03737
454.8856 2630.77970
455.0975 2425.51179
455.3093 2415.04667
455.5211 2497.70269
455.7329 2474.17153
455.9446 2518.51005
456.1564 2529.63052
456.3681 2615.46089
456.5798 2738.23662
456.7916 2639.31973
457.0033 2625.06586
457.2149 2594.57161
457.4266 2633.31918
457.6382 2681.32357
457.8499 2652.42673
458.0615 2758.32719
458.2731 2668.11417
458.4847 2787.12163
458.6963 2878.37912
458.9078 2904.32688
459.1194 3077.68744
459.3309 3088.60311
459.5424 2932.15878
459.7539 2830.08802
459.9654 2856.46585
460.1769 2908.05419
460.3883 2879.44406
460.5998 2754.23125
460.8112 2730.33146
461.0226 2777.76241
461.2340 2875.28669
461.4454 2852.08320
461.6567 2818.23028
461.8681 2836.39576
462.0794 2790.43934
462.2907 2920.17816
462.5020 3153.91283
462.7133 3257.37622
462.9246 3025.46423
463.1359 2900.02615
463.3471 2776.57459
463.5583 2838.21845
463.7696 3226.12421
463.9808 3059.91107
464.1919 2997.77570
464.4031 2983.13272
464.6143 3009.46960
464.8254 2923.45491
465.0365 2876.02395
465.2476 3154.17907
465.4587 3313.92063
465.6698 2899.51416
465.8809 2976.19011
466.0919 2953.08902
466.3030 3014.61000
466.5140 3042.25758
466.7250 2977.23457
466.9360 3090.40532
467.1469 3035.62216
467.3579 2843.97324
467.5688 2834.57307
467.7798 3069.70036
467.9907 3176.87056
468.2016 3067.87767
468.4125 3033.67659
468.6233 2875.02045
468.8342 2912.08868
469.0450 3090.67156
469.2559 3186.31170
469.4667 3139.06506
469.6775 2890.29830
469.8882 3060.66882
470.0990 3014.56904
470.3098 3304.25422
470.5205 3128.10843
470.7312 3196.96114
470.9419 3410.09325
471.1526 3309.25126
471.3633 3038.32548
471.5739 3059.09188
471.7846 3040.66016
471.9952 2974.69509
472.2058 3077.15497
472.4164 3066.87416
472.6270 3045.14521
472.8376 3174.24916
473.0481 3355.08480
473.2587 3438.12994
473.4692 3342.05972
473.6797 3234.74616
473.8902 2991.95947
474.1007 2974.81797
474.3111 3004.94359
474.5216 2927.46893
474.7320 3054.54539
474.9424 3198.96815
475.1528 3273.67805
475.3632 3144.75841
475.5736 3094.95181
475.7840 3096.75403
475.9943 3150.71800
476.2046 3159.44235
476.4149 3225.46886
476.6252 3260.14097
476.8355 3363.95251
477.0458 3436.79876
477.2561 3424.69526
477.4663 3271.32288
477.6765 3289.26309
477.8867 3305.72876
478.0969 3293.48190
478.3071 3277.44631
478.5173 3380.99161
478.7274 3353.20067
478.9375 3405.15764
479.1477 3374.92962
479.3578 3511.61106
479.5679 3456.27494
479.7779 3493.62989
479.9880 3489.18580
480.1980 3536.90347
480.4081 3547.34811
480.6181 3420.88604
480.8281 3535.46989
481.0381 3469.50482
481.2480 3473.55980
481.4580 3553.96305
481.6679 3504.05405
481.8778 3463.48379
482.0877 3480.19522
482.2976 3386.00913
482.5075 3463.34043
482.7174 3549.88759
482.9272 3611.38809
483.1371 3473.88747
483.3469 3536.26860
483.5567 3658.67569
483.7665 3544.27616
483.9762 3599.61227
484.1860 3727.01641
484.3957 3730.00644
484.6055 3593.01781
484.8152 3661.17421
485.0249 3772.31748
485.2346 3759.72247
485.4442 3760.86933
485.6539 3788.43499
485.8635 3776.59773
486.0732 3650.15614
486.2828 3682.98508
486.4924 3682.24781
486.7019 3798.87963
486.9115 3747.27082
487.1210 3761.54516
487.3306 3894.82697
487.5401 3868.65393
487.7496 3913.97548
487.9591 3959.09223
488.1686 3901.33951
488.3780 3860.09342
488.5875 3964.25311
488.7969 4053.44215
489.0063 4012.78997
489.2157 4074.39287
489.4251 4002.09957
489.6345 3996.07854
489.8438 4094.81112
490.0531 3917.64134
490.2625 3985.65438
490.4718 4093.15226
490.6811 4149.04133
490.8903 4159.42453
491.0996 4187.76842
491.3089 4199.13465
491.5181 4240.01210
491.7273 4253.24198
491.9365 4218.87706
492.1457 4295.88069
492.3549 4328.66867
492.5640 4236.22336
492.7732 4314.72200
492.9823 4359.51108
493.1914 4486.71042
493.4005 4462.58535
493.6096 4429.83833
493.8187 4383.32895
494.0277 4476.14290
494.2368 4481.36522
494.4458 4514.80855
494.6548 4578.90997
494.8638 4632.97635
495.0728 4605.43117
495.2817 4609.75238
495.4907 4634.98335
495.6996 4669.34827
495.9085 4684.54420
496.1174 4744.14009
496.3263 4748.52274
496.5352 4761.85502
496.7440 4862.22597
496.9529 4891.59384
497.1617 4844.63392
497.3705 4884.91746
497.5793 4989.79394
497.7881 4884.91746
497.9969 4967.49156
498.2056 5033.29280
498.4144 5059.19960
498.6231 5123.38294
498.8318 5125.73811
499.0405 5144.23126
499.2492 5126.31154
499.4578 5191.66222
499.6665 5186.56278
499.8751 5310.93592
500.0837 5309.01083
500.2923 5339.58700
500.5009 5349.94973
500.7095 5456.97657
500.9180 5415.66904
501.1266 5486.75404
501.3351 5497.44443
501.5436 5587.69842
501.7521 5570.90507
501.9606 5652.16847
502.1691 5703.92064
502.3775 5657.49319
502.5860 5716.53613
502.7944 5747.72670
503.0028 5815.35062
503.2112 5830.42367
503.4196 5874.51644
503.6279 5918.19961
503.8363 5880.27123
504.0446 6028.60561
504.2529 6004.39862
504.4612 6060.49248
504.6695 6148.10459
504.8778 6151.48373
505.0860 6167.45789
505.2943 6160.47432
505.5025 6279.54322
505.7107 6273.29692
505.9189 6354.72415
506.1271 6406.25105
506.3353 6403.36341
506.5434 6368.34315
506.7516 6500.86720
506.9597 6528.74006
507.1678 6598.63723
507.3759 6581.98725
507.5840 6637.63056
507.7920 6695.28088
508.0001 6715.98584
508.2081 6817.64701
508.4161 6788.54537
508.6241 6984.06495
508.8321 6946.64856
509.0401 6929.91666
509.2480 7050.05050
509.4560 7046.85567
509.6639 7133.91482
509.8718 7146.44839
510.0797 7276.57633
510.2876 7280.71322
510.4955 7372.70798
510.7033 7418.11145
510.9112 7452.82452
511.1190 7577.83253
511.3268 7527.51394
511.5346 7597.22679
511.7424 7645.33358
511.9501 7753.60969
512.1579 7792.84877
512.3656 7829.26165
512.5733 7815.23307
512.7810 7947.75713
512.9887 8013.64028
513.1964 8010.09729
513.4040 8071.39300
513.6117 8140.45050
513.8193 8229.16851
514.0269 8247.35447
514.2345 8376.00787
514.4421 8323.00644
514.6497 8323.47747
514.8572 8498.88600
515.0647 8553.64868
515.2723 8610.70509
515.4798 8677.46887
515.6873 8760.32969
515.8947 8806.38850
516.1022 8781.89480
516.3097 8867.41797
516.5171 8997.30015
516.7245 9046.49236
516.9319 9114.95595
517.1393 9151.88083
517.3467 9144.61054
517.5540 9182.86660
517.7614 9399.70553
517.9687 9445.14996
518.1760 9477.24163
518.3833 9583.08065
518.5906 9607.32860
518.7978 9794.18527
519.0051 9733.77019
519.2123 9907.72466
519.4196 9735.73624
519.6268 9903.91544
519.8340 9947.84437
520.0411 10035.70222
520.2483 10247.40075
520.4554 10209.65669
520.6626 10476.75278
520.8697 10404.45948
521.0768 10620.23347
521.2839 10580.56431
521.4909 10584.33257
521.6980 10739.87580
521.9050 10914.83377
522.1121 10838.91557
522.3191 11080.04341
522.5261 11062.65615
522.7331 11105.56110
522.9400 11305.60669
523.1470 11334.50353
523.3539 11456.80822
523.5608 11447.79716
523.7677 11483.16558
523.9746 11617.92192
524.1815 11889.19586
524.3884 11797.54926
524.5952 11797.28303
524.8020 12097.88388
525.0089 12015.35074
525.2157 12143.92222
525.4225 12238.70221
525.6292 12255.20884
525.8360 12338.66356
526.0427 12423.10132
526.2494 12618.64137
526.4562 12577.98919
526.6629 12692.40921
526.8695 12714.91638
527.0762 12957.41636
527.2829 13041.28068
527.4895 13154.73815
527.6961 13278.06683
527.9027 13368.66897
528.1093 13451.42738
528.3159 13499.75945
528.5224 13455.35948
528.7290 13838.22724
528.9355 13668.96262
529.1420 14036.36822
529.3485 13927.76444
529.5550 14140.56887
529.7615 14099.91669
529.9680 14248.55826
530.1744 14263.71323
530.3808 14459.72432
530.5872 14415.83635
530.7936 14573.20227
531.0000 14627.18672
531.2064 14805.93344
531.4127 14878.08338
531.6191 15020.29432
531.8254 15119.35457
532.0317 15309.63135
532.2380 15256.46608
532.4443 15377.93111
532.6505 15241.08584
532.8568 15519.79390
533.0630 15834.09567
533.2692 15766.14406
533.4754 15900.26554
533.6816 16116.08048
533.8878 15986.36214
534.0939 16340.59930
534.3001 16347.29616
534.5062 16471.56690
534.7123 16357.14689
534.9184 16483.24032
535.1245 16651.89055
535.3306 16663.56397
535.5366 17025.87012
535.7426 17046.86180
535.9487 17110.79939
536.1547 17082.02542
536.3607 17374.25009
536.5666 17279.65441
536.7726 17404.84674
536.9785 17620.49785
537.1845 17804.97887
537.3904 17671.24651
537.5963 17723.28540
537.8022 17955.23834
538.0080 18114.97990
538.2139 18194.78925
538.4197 18315.45556
538.6256 18289.83547
538.8314 18362.82508
539.0372 18512.08104
539.2430 18888.23146
539.4487 18712.43383
539.6545 18997.90019
539.8602 18923.80468
540.0659 19097.75915
540.2716 19533.03442
540.4773 19576.86096
540.6830 19685.75145
540.8887 19814.50725
541.0943 19597.50448
541.2999 19700.27155
541.5056 19744.46672
541.7112 19996.85839
541.9167 19911.31473
542.1223 19919.26085
542.3279 20337.70183
542.5334 20413.57907
542.7389 20596.48316
542.9444 20684.34102
543.1499 20779.69444
543.3554 20762.55294
543.5609 21088.28237
543.7663 21116.60578
543.9718 20982.70958
544.1772 21145.72790
544.3826 21125.67828
544.5880 21771.19803
544.7934 21603.26460
544.9987 21637.62951
545.2041 22033.68619
545.4094 21997.86721
545.6147 21992.50154
545.8200 22280.56882
546.0253 22265.47529
546.2306 22586.28960
546.4358 22363.04052
546.6411 22728.80774
546.8463 22582.60325
547.0515 22867.76242
547.2567 23068.46336
547.4619 23104.77384
547.6670 23219.62393
547.8722 23325.03288
548.0773 23625.28558
548.2824 23604.56014
548.4876 23767.12790
548.6926 23825.00349
548.8977 23933.27960
549.1028 24037.45977
549.3078 24246.55738
549.5129 24283.29794
549.7179 24357.57777
549.9229 24520.57560
550.1279 24442.87567
550.3328 24776.36690
550.5378 24481.70515
550.7427 24876.65593
550.9476 25059.15042
551.1526 24502.14388
551.3575 25113.87215
551.5623 25180.45161
551.7672 25081.80096
551.9720 25187.66046
552.1769 25293.54045
552.3817 25505.03418
552.5865 25337.63321
552.7913 25596.10735
552.9961 25449.55470
553.2008 25699.79601
553.4056 25974.28526
553.6103 25906.80469
553.8150 26157.02551
554.0197 26212.40258
554.2244 26166.89672
554.4291 26185.88139
554.6337 26600.94322
554.8384 26417.60905
555.0430 26635.61533
555.2476 26421.35684
555.4522 26431.76052
555.6568 26766.62389
555.8613 26932.61175
556.0659 27012.31870
556.2704 26736.90786
556.4750 27104.94832
556.6795 27285.57917
556.8839 26977.13460
557.0884 27498.62936
557.2929 27408.04770
557.4973 27215.80487
557.7018 27316.81069
557.9062 27484.80557
558.1106 27532.33892
558.3150 27341.22248
558.5193 27723.14817
558.7237 27841.82796
558.9280 27555.74721
559.1323 27792.30808
559.3367 27676.67976
559.5410 27888.70597
559.7452 27637.64548
559.9495 27977.66973
560.1537 27964.41937
560.3580 27868.84067
560.5622 28143.92383
560.7664 28334.38492
560.9706 28304.93513
561.1748 28422.30422
561.3789 28409.89353
561.5831 28446.90033
561.7872 28304.56650
561.9913 28632.54870
562.1954 28549.87220
562.3995 28693.63960
562.6036 28728.74179
562.8076 28517.92388
563.0117 28804.55759
563.2157 28689.03167
563.4197 28907.50898
563.6237 29082.40551
563.8277 28798.51608
564.0316 28584.97438
564.2356 29045.52159
564.4395 28981.29729
564.6434 29164.50858
564.8473 29340.94109
565.0512 29327.99792
565.2551 29281.65239
565.4590 29344.52503
565.6628 29548.83039
565.8666 29778.18241
566.0705 29545.30789
566.2743 29555.07670
566.4780 29637.32312
566.6818 29546.65955
566.8856 30077.53401
567.0893 29656.84027
567.2930 29857.33641
567.4967 29568.47041
567.7004 29818.91651
567.9041 29977.36785
568.1078 29981.03372
568.3114 30200.67837
568.5151 30082.38769
568.7187 29734.76548
568.9223 29980.03021
569.1259 30116.54781
569.3295 30469.59714
569.5330 30429.49792
569.7366 30432.85658
569.9401 30536.77052
570.1436 30580.67897
570.3471 30679.10435
570.5506 30644.94423
570.7541 30636.67043
570.9575 30663.47835
571.1609 30377.23375
571.3644 30852.99737
571.5678 30841.48779
571.7712 31213.46035
571.9746 31072.10955
572.1779 30879.02706
572.3813 30723.11520
572.5846 30962.23603
572.7879 30880.35824
572.9912 31472.87655
573.1945 31317.08757
573.3978 30924.04141
573.6010 31256.09906
573.8043 31815.17405
574.0075 31039.23965
574.2107 31188.27034
574.4139 31165.02589
574.6171 31270.41436
574.8203 31087.03924
575.0234 31539.78369
575.2266 31013.25093
575.4297 31168.75320
575.6328 31322.90380
575.8359 31615.64046
576.0390 30996.64190
576.2420 31085.03223
576.4451 30792.11126
576.6481 31225.76865
576.8512 31680.78634
577.0542 31018.73948
577.2571 31495.07654
577.4601 31453.83045
577.6631 31323.74347
577.8660 31210.83895
578.0689 31118.10693
578.2719 31298.16434
578.4748 31119.37667
578.6776 31071.72044
578.8805 31147.43384
579.0834 30697.00359
579.2862 31132.58607
579.4890 31502.44922
579.6918 31313.46267
579.8946 30990.70279
580.0974 31406.17421
580.3002 31108.25620
580.5029 30956.97275
580.7057 31348.48293
580.9084 30892.83037
581.1111 31440.10905
581.3138 31207.33693
581.5164 30956.76795
581.7191 30831.18651
581.9217 30934.34269
582.1244 31001.94614
582.3270 31012.00167
582.5296 30934.19933
582.7322 31202.50372
582.9347 31041.98393
583.1373 30794.24115
583.3398 31055.02949
583.5424 30826.88577
583.7449 30785.74208
583.9474 30602.87895
584.1498 30534.92735
584.3523 30983.30962
584.5548 30548.85353
584.7572 30718.17959
584.9596 30874.74680
585.1620 31453.27749
585.3644 30604.12821
585.5668 30665.42392
585.7691 31057.56897
585.9715 30868.17282
586.1738 31125.76633
586.3761 31109.15730
586.5784 31324.97225
586.7807 31168.71224
586.9830 31107.21173
587.1852 31083.35290
587.3875 30825.67747
587.5897 31337.85397
587.7919 31061.29628
587.9941 30720.28900
588.1963 30876.79477
588.3984 31278.23760
588.6006 30745.19230
588.8027 31256.61105
589.0048 30927.25672
589.2069 31093.42890
589.4090 31067.35826
589.6111 31285.22118
589.8131 31211.61718
590.0152 31328.72003
590.2172 31256.95921
590.4192 31622.66499
590.6212 31324.21450
590.8232 31095.27208
591.0252 31494.91270
591.2271 31555.69641
591.4291 31580.90691
591.6310 31391.38788
591.8329 31413.13731
592.0348 31734.36120
592.2367 31745.74791
592.4385 32093.98452
592.6404 32122.63560
592.8422 32229.43717
593.0440 32336.73025
593.2458 32535.05555
593.4476 32718.38971
593.6494 32699.83511
593.8512 32927.07773
594.0529 33236.42340
594.2546 33172.21958
594.4563 33090.62851
594.6580 32792.97673
594.8597 32788.16400
595.0614 32878.39751
595.2630 33148.01259
595.4647 33098.30839
595.6663 32760.20923
595.8679 33124.11280
596.0695 33605.81553
596.2711 33445.86917
596.4727 33468.94978
596.6742 33769.01816
596.8757 33923.18925
597.0773 33846.47234
597.2788 33517.91671
597.4802 33892.98171
597.6817 34302.43210
597.8832 33987.55690
598.0846 34318.52913
598.2860 34322.27692
598.4875 33998.80025
598.6889 34566.00568
598.8902 34585.58426
599.0916 34676.14544
599.2930 34296.59539
599.4943 34812.08960
599.6956 34856.26429
599.8969 34634.89935
600.0982 34343.12524
600.2995 34519.78302
600.5008 35249.51525
600.7020 34643.27554
600.9032 35140.46091
601.1045 34944.67510
601.3057 34600.86210
601.5068 35266.80010
601.7080 35277.20378
601.9092 35134.91092
602.1103 35708.66984
602.3115 35571.02586
602.5126 35829.72527
602.7137 35733.88034
602.9147 35706.68331
603.1158 35867.46934
603.3169 36070.21824
603.5179 35942.56835
603.7189 35787.45520
603.9199 36001.30410
604.1209 36013.36663
604.3219 36045.49926
604.5229 36106.79497
604.7238 36260.92509
604.9247 36278.31235
605.1257 36461.38028
605.3266 36712.70700
605.5275 36295.65864
605.7283 36477.57971
605.9292 36601.31798
606.1300 36058.97490
606.3309 36275.11752
606.5317 36606.15119
606.7325 36729.47986
606.9332 36785.90140
607.1340 37025.26799
607.3348 36899.01072
607.5355 36375.93902
607.7362 37292.17976
607.9369 36606.41742
608.1376 36908.18562
608.3383 36699.90720
608.5390 37492.43014
608.7396 37104.91350
608.9402 37673.77777
609.1409 37652.21266
609.3415 37299.57293
609.5421 37169.87506
609.7426 37518.43935
609.9432 37111.24172
610.1437 37000.91764
610.3443 37805.93320
610.5448 37590.93744
610.7453 37915.41761
610.9457 37546.06644
611.1462 37739.35373
611.3467 37661.96100
611.5471 38058.73446
611.7475 37564.68248
611.9479 38305.04366
612.1483 37703.59620
612.3487 38279.40309
612.5491 38142.49638
612.7494 38701.53041
612.9497 38059.28741
613.1501 38483.76990
613.3504 38269.90052
613.5506 38891.99151
613.7509 38522.47650
613.9512 38451.20719
614.1514 38627.82402
614.3516 39004.67075
614.5519 38897.41862
614.7521 39020.48107
614.9522 38686.41640
615.1524 38765.18128
615.3526 39176.00381
615.5527 39774.46124
615.7528 39331.19888
615.9529 39368.06232
616.1530 39734.89448
616.3531 39732.21165
616.5532 39631.63590
616.7532 39163.65456
616.9532 39525.44872
617.1533 39325.32121
617.3533 39719.26848
617.5532 39459.58605
617.7532 39645.45969
617.9532 38866.59669
618.1531 39839.38185
618.3530 39284.13656
618.5530 39582.89424
618.7528 39761.98911
618.9527 39811.85715
619.1526 39460.58955
619.3524 39510.04800
619.5523 39709.64303
619.7521 39834.15953
619.9519 39885.97314
620.1517 39853.98387
620.3515 40186.36920
620.5512 40485.74127
620.7510 40232.34609
620.9507 39931.35613
621.1504 39976.67767
621.3501 40097.61023
621.5498 40345.02533
621.7495 40415.14778
621.9492 40059.39513
622.1488 39830.08407
622.3484 39934.44856
622.5480 39888.63550
622.7476 40616.64743
622.9472 39881.32425
623.1468 40151.69708
623.3463 41209.88254
623.5459 40908.97449
623.7454 40647.75607
623.9449 40649.96788
624.1444 40608.18932
624.3439 41045.79928
624.5433 40819.37586
624.7428 40644.21309
624.9422 40692.99570
625.1416 40855.68634
625.3410 40823.28748
625.5404 40723.05989
625.7398 40755.84787
625.9391 40935.65952
626.1385 40482.91507
626.3378 40549.88365
626.5371 41270.62529
626.7364 40611.87566
626.9357 41009.57071
627.1350 40965.53939
627.3342 40599.97696
627.5335 40449.55366
627.7327 40689.12504
627.9319 40698.25898
628.1311 41733.75294
628.3303 40903.40401
628.5294 41137.09773
628.7286 41308.20552
628.9277 41743.17360
629.1268 41411.81226
629.3259 42074.08439
629.5250 41999.64073
629.7241 41911.49615
629.9231 41184.87684
630.1222 41925.79097
630.3212 41778.27578
630.5202 41408.10543
630.7192 41963.43264
630.9182 41367.45325
631.1171 41632.39897
631.3161 41428.38032
631.5150 41280.10739
631.7140 41513.08431
631.9129 41718.31126
632.1118 42150.57602
632.3106 41949.73173
632.5095 41731.56162
632.7083 41638.85007
632.9072 41728.85830
633.1060 41839.69437
633.3048 41905.00409
633.5036 41325.06030
633.7023 41710.16034
633.9011 42161.08210
634.0998 41977.60458
634.2986 42156.08506
634.4973 41935.84650
634.6960 42028.61948
634.8947 41859.76446
635.0933 42173.98431
635.2920 41889.68528
635.4906 41536.82027
635.6892 42294.50727
635.8878 42374.64428
636.0864 42420.55974
636.2850 42076.11188
636.4836 42108.69506
636.6821 42163.62158
636.8806 42359.71459
637.0792 42315.96998
637.2777 42264.01301
637.4761 42359.73507
637.6746 42090.24286
637.8731 42459.30731
638.0715 41943.73118
638.2699 42696.60545
638.4683 42348.28693
638.6667 41538.56104
638.8651 42339.64450
639.0635 42584.35628
639.2618 42634.42912
639.4602 42534.11961
639.6585 42372.08432
639.8568 42541.49230
640.0551 42583.49614
640.2534 42549.58177
640.4516 42258.66781
640.6499 42479.68460
640.8481 43239.99300
641.0463 42983.44395
641.2445 43214.59819
641.4427 43024.62861
641.6409 42782.47678
641.8390 43064.56400
642.0372 43383.57609
642.2353 43208.94579
642.4334 42618.02489
642.6315 42859.41897
642.8296 42915.53331
643.0277 42687.34863
643.2257 43370.61245
643.4237 43426.99303
643.6218 43353.71670
643.8198 43062.82322
644.0178 43193.85226
644.2157 43141.69050
644.4137 43032.26753
644.6116 43732.98004
644.8096 44046.79029
