# Averages = 100
# wavelength [µm]	intensity
446.8250 14.33578
447.0374 36746.70328
447.2498 1226.56944
447.4621 1223.23125
447.6745 1226.28273
447.8868 1249.26094
448.0992 1242.07257
448.3115 1237.11648
448.5238 1246.33234
448.7360 1235.21187
448.9483 1247.33585
449.1606 1234.10597
449.3728 1269.90446
449.5850 1234.33125
449.7972 1246.02515
450.0094 1230.84970
450.2216 1259.99229
450.4337 1248.85134
450.6459 1735.18248
450.8580 2091.52905
451.0701 2126.28308
451.2822 2157.02309
451.4943 2141.66332
451.7064 2131.09580
451.9184 2117.19009
452.1305 2221.39074
452.3425 2320.86059
452.5545 2206.25625
452.7665 2216.92617
452.9785 2315.55635
453.1905 2351.21148
453.4024 2308.30654
453.6143 2428.58374
453.8263 2414.35036
454.0382 2604.97529
454.2501 2402.63598
454.4619 2379.67825
454.6738 2506.09936
454.8856 2634.73228
455.0975 2441.17875
455.3093 2437.34905
455.5211 2497.27261
455.7329 2474.70400
455.9446 2530.69546
456.1564 2543.20855
456.3681 2641.53153
456.5798 2744.50340
456.7916 2662.05218
457.0033 2641.42913
457.2149 2600.96127
457.4266 2648.04407
457.6382 2692.91507
457.8499 2658.46823
458.0615 2774.93622
458.2731 2665.71804
458.4847 2794.06425
458.6963 2896.83132
458.9078 2925.33904
459.1194 3084.36382
459.3309 3114.81711
459.5424 2943.72980
459.7539 2852.24704
459.9654 2874.54942
460.1769 2905.20751
460.3883 2891.71140
460.5998 2753.78070
460.8112 2741.51337
461.0226 2805.53287
461.2340 2891.73187
461.4454 2861.13522
461.6567 2823.02252
461.8681 2839.69299
462.0794 2797.36148
462.2907 2936.04992
462.5020 3177.15728
462.7133 3279.90387
462.9246 3033.10316
463.1359 2903.52817
463.3471 2770.30781
463.5583 2848.47878
463.7696 3247.03397
463.9808 3065.82970
464.1919 3010.88270
464.4031 2983.07128
464.6143 3033.24652
464.8254 2931.81062
465.0365 2900.25143
465.2476 3164.45987
465.4587 3326.69996
465.6698 2910.75750
465.8809 2976.72258
466.0919 2969.65709
466.3030 3031.46478
466.5140 3059.72675
466.7250 2977.68512
466.9360 3120.59238
467.1469 3047.31606
467.3579 2859.43541
467.5688 2837.37878
467.7798 3076.23338
467.9907 3201.97866
468.2016 3074.61548
468.4125 3041.54079
468.6233 2887.75882
468.8342 2920.30104
469.0450 3098.55624
469.2559 3202.81833
469.4667 3148.81339
469.6775 2895.09054
469.8882 3070.92914
470.0990 3020.44671
470.3098 3311.93410
470.5205 3132.26580
470.7312 3213.85688
470.9419 3437.78178
471.1526 3322.93170
471.3633 3041.29503
471.5739 3072.66991
471.7846 3064.19132
471.9952 2991.52939
472.2058 3095.25901
472.4164 3078.58854
472.6270 3046.47639
472.8376 3181.92905
473.0481 3371.96007
473.2587 3448.10355
473.4692 3365.16081
473.6797 3247.21829
473.8902 3018.05059
474.1007 2983.05080
474.3111 3018.19395
474.5216 2938.95803
474.7320 3061.69280
474.9424 3226.53381
475.1528 3297.37305
475.3632 3150.26745
475.5736 3097.45034
475.7840 3112.89202
475.9943 3159.68811
476.2046 3184.93956
476.4149 3246.68582
476.6252 3267.34982
476.8355 3385.47666
477.0458 3447.55059
477.2561 3445.66646
477.4663 3281.37841
477.6765 3298.78614
477.8867 3311.23779
478.0969 3314.41215
478.3071 3287.25608
478.5173 3387.60655
478.7274 3360.47096
478.9375 3424.73622
479.1477 3387.62703
479.3578 3523.38688
479.5679 3475.97640
479.7779 3520.21252
479.9880 3501.98560
480.1980 3549.31416
480.4081 3566.55806
480.6181 3430.55245
480.8281 3555.45807
481.0381 3487.50646
481.2480 3480.15426
481.4580 3557.66987
481.6679 3528.81399
481.8778 3477.40998
482.0877 3497.15240
482.2976 3406.20210
482.5075 3490.66034
482.7174 3568.64699
482.9272 3632.31833
483.1371 3515.15404
483.3469 3550.46102
483.5567 3684.52106
483.7665 3552.03796
483.9762 3622.77480
484.1860 3756.91675
484.3957 3757.20347
484.6055 3604.79363
484.8152 3688.10500
485.0249 3807.15343
485.2346 3779.07577
485.4442 3779.66969
485.6539 3820.54714
485.8635 3801.19384
486.0732 3680.13840
486.2828 3705.18506
486.4924 3707.74502
486.7019 3829.98828
486.9115 3777.23260
487.1210 3790.42152
487.3306 3907.89301
487.5401 3882.04764
487.7496 3932.73487
487.9591 3980.26823
488.1686 3931.93616
488.3780 3870.08751
488.5875 3987.41564
488.7969 4070.84988
489.0063 4042.54695
489.2157 4095.63030
489.4251 4021.00232
489.6345 3992.12596
489.8438 4113.07900
490.0531 3932.12048
490.2625 4012.54421
490.4718 4110.08896
490.6811 4166.75626
490.8903 4183.18097
491.0996 4227.19182
491.3089 4217.15677
491.5181 4257.52223
491.7273 4280.35709
491.9365 4263.64566
492.1457 4330.06129
492.3549 4353.05998
492.5640 4263.56374
492.7732 4337.59781
492.9823 4381.44482
493.1914 4501.94730
493.4005 4487.57056
493.6096 4440.50824
493.8187 4408.64185
494.0277 4505.03974
494.2368 4487.36577
494.4458 4539.50705
494.6548 4607.11050
494.8638 4651.67430
495.0728 4626.25901
495.2817 4635.00383
495.4907 4662.71285
495.6996 4704.16374
495.9085 4711.04491
496.1174 4782.41663
496.3263 4777.11239
496.5352 4801.15554
496.7440 4894.50195
496.9529 4923.97222
497.1617 4867.77596
497.3705 4900.05195
497.5793 5016.92953
497.7881 4919.83533
497.9969 5016.62233
498.2056 5069.84904
498.4144 5095.79680
498.6231 5152.73033
498.8318 5151.27628
499.0405 5170.07663
499.2492 5152.75081
499.4578 5215.95113
499.6665 5216.50408
499.8751 5335.81874
500.0837 5343.04807
500.2923 5359.96429
500.5009 5356.58514
500.7095 5492.75459
500.9180 5449.80868
501.1266 5526.52559
501.3351 5534.06212
501.5436 5634.02347
501.7521 5627.87956
501.9606 5679.65221
502.1691 5739.35050
502.3775 5697.85866
502.5860 5752.74422
502.7944 5794.68662
503.0028 5855.38841
503.2112 5846.25447
503.4196 5915.31198
503.6279 5969.03020
503.8363 5911.99427
504.0446 6077.44966
504.2529 6050.02736
504.4612 6109.78709
504.6695 6197.54255
504.8778 6203.82982
505.0860 6229.24511
505.2943 6204.75140
505.5025 6300.78066
505.7107 6337.48026
505.9189 6401.02873
506.1271 6457.34787
506.3353 6455.81189
506.5434 6433.52999
506.7516 6530.95186
506.9597 6590.19960
507.1678 6661.50987
507.3759 6640.04716
507.5840 6687.60099
507.7920 6748.46663
508.0001 6744.55500
508.2081 6882.01467
508.4161 6847.99791
508.6241 7030.06233
508.8321 6987.13690
509.0401 6972.84208
509.2480 7106.57444
509.4560 7098.99696
509.6639 7184.88877
509.8718 7195.39485
510.0797 7340.20672
510.2876 7334.90248
510.4955 7427.51162
510.7033 7455.60975
510.9112 7518.58479
511.1190 7605.07051
511.3268 7583.09581
511.5346 7661.57397
511.7424 7708.82061
511.9501 7819.55428
512.1579 7849.22935
512.3656 7875.11567
512.5733 7848.38968
512.7810 8003.07276
512.9887 8073.97344
513.1964 8087.73579
513.4040 8146.12338
513.6117 8191.73164
513.8193 8300.62214
514.0269 8311.41494
514.2345 8434.19066
514.4421 8383.25768
514.6497 8388.78720
514.8572 8557.88798
515.0647 8602.10362
515.2723 8681.85152
515.4798 8742.71715
515.6873 8816.13683
515.8947 8891.19489
516.1022 8857.64916
516.3097 8938.97400
516.5171 9053.47593
516.7245 9119.05189
516.9319 9184.50497
517.1393 9233.04183
517.3467 9222.33096
517.5540 9234.16822
517.7614 9498.08995
517.9687 9506.05655
518.1760 9523.05469
518.3833 9666.35106
518.5906 9678.59791
518.7978 9839.99833
519.0051 9795.88508
519.2123 9976.94600
519.4196 9784.60078
519.6268 9981.14434
519.8340 10026.42493
520.0411 10100.23372
520.2483 10327.35345
520.4554 10288.81068
520.6626 10553.89976
520.8697 10491.37527
521.0768 10696.21311
521.2839 10657.71129
521.4909 10653.96351
521.6980 10837.95302
521.9050 11012.00989
522.1121 10922.96421
522.3191 11198.62080
522.5261 11164.15349
522.7331 11209.06544
522.9400 11404.58502
523.1470 11430.61470
523.3539 11565.65776
523.5608 11568.91403
523.7677 11577.55646
523.9746 11705.26779
524.1815 11992.55685
524.3884 11891.24383
524.5952 11901.64751
524.8020 12180.43750
525.0089 12130.18035
525.2157 12245.84962
525.4225 12327.52261
525.6292 12357.62775
525.8360 12434.11939
526.0427 12538.54531
526.2494 12735.04792
526.4562 12701.27691
526.6629 12844.90096
526.8695 12837.89691
527.0762 13087.70813
527.2829 13140.87340
527.4895 13244.00911
527.6961 13371.92524
527.9027 13478.15338
528.1093 13547.90719
528.3159 13605.14792
528.5224 13557.61456
528.7290 13928.54266
528.9355 13780.72028
529.1420 14162.66645
529.3485 14049.16802
529.5550 14250.17616
529.7615 14182.51127
529.9680 14357.73547
530.1744 14385.05538
530.3808 14583.33971
530.5872 14549.44583
530.7936 14710.62097
531.0000 14757.41706
531.2064 14934.01340
531.4127 15027.21646
531.6191 15127.46453
531.8254 15218.94729
532.0317 15430.11335
532.2380 15355.52633
532.4443 15527.37139
532.6505 15352.00382
532.8568 15648.85689
533.0630 15961.29501
533.2692 15886.60559
533.4754 16006.94423
533.6816 16192.30588
533.8878 16106.70079
534.0939 16445.39386
534.3001 16484.89918
534.5062 16599.38063
534.7123 16484.07999
534.9184 16598.72528
535.1245 16763.09525
535.3306 16792.54504
535.5366 17138.42648
535.7426 17159.21337
535.9487 17206.13233
536.1547 17204.10484
536.3607 17499.17618
536.5666 17412.48566
536.7726 17536.08058
536.9785 17739.99683
537.1845 17917.12564
537.3904 17797.99530
537.5963 17868.83454
537.8022 18093.57863
538.0080 18240.80710
538.2139 18341.17805
538.4197 18464.99824
538.6256 18398.11158
538.8314 18524.81941
539.0372 18664.73663
539.2430 19023.92987
539.4487 18810.06050
539.6545 19167.43104
539.8602 19058.19239
540.0659 19263.86989
540.2716 19651.32510
540.4773 19762.71412
540.6830 19896.56936
540.8887 19992.70101
541.0943 19743.38130
541.2999 19891.87951
541.5056 19903.49149
541.7112 20174.00768
541.9167 20057.62162
542.1223 20107.05959
542.3279 20497.42291
542.5334 20592.01859
542.7389 20780.02212
542.9444 20873.47093
543.1499 20965.34281
543.3554 20874.67923
543.5609 21265.32927
543.7663 21283.90435
543.9718 21141.18141
544.1772 21332.52313
544.3826 21323.49158
544.5880 21945.52113
544.7934 21767.22497
544.9987 21863.37711
545.2041 22230.78270
545.4094 22162.07335
545.6147 22164.03940
545.8200 22526.61179
546.0253 22453.39690
546.2306 22743.71695
546.4358 22568.00123
546.6411 22916.74983
546.8463 22757.25403
547.0515 23065.30949
547.2567 23196.01085
547.4619 23290.27885
547.6670 23394.00847
547.8722 23537.03861
548.0773 23822.83265
548.2824 23789.86035
548.4876 23941.63531
548.6926 24009.48452
548.8977 24158.35137
549.1028 24232.38544
549.3078 24456.78137
549.5129 24454.85628
549.7179 24589.55119
549.9229 24767.74495
550.1279 24610.29711
550.3328 24997.77280
550.5378 24678.69927
550.7427 25041.00542
550.9476 25227.86209
551.1526 24711.65108
551.3575 25307.42567
551.5623 25410.56138
551.7672 25292.00447
551.9720 25363.58098
552.1769 25541.75426
552.3817 25727.64838
552.5865 25557.60554
552.7913 25822.36694
552.9961 25686.46373
553.2008 25919.82977
553.4056 26229.07305
553.6103 26138.45043
553.8150 26349.65745
554.0197 26461.10791
554.2244 26322.91098
554.4291 26432.84594
554.6337 26852.16754
554.8384 26600.18547
555.0430 26859.02824
555.2476 26627.87400
555.4522 26641.18580
555.6568 26985.34695
555.8613 27114.28706
556.0659 27245.60282
556.2704 26960.38221
556.4750 27305.36255
556.6795 27466.27145
556.8839 27181.78811
557.0884 27743.01347
557.2929 27570.71786
557.4973 27445.91464
557.7018 27560.21178
557.9062 27743.85314
558.1106 27742.62435
558.3150 27540.59224
558.5193 27979.14427
558.7237 28039.19071
558.9280 27812.62393
559.1323 28023.23703
559.3367 27883.62700
559.5410 28168.80665
559.7452 27868.39012
559.9495 28231.16730
560.1537 28253.03961
560.3580 28105.70873
560.5622 28358.83767
560.7664 28558.35079
560.9706 28564.12606
561.1748 28716.49493
561.3789 28666.68833
561.5831 28693.59864
561.7872 28603.85665
561.9913 28903.55640
562.1954 28837.28413
562.3995 28974.33420
562.6036 28979.37220
562.8076 28788.27624
563.0117 29081.36105
563.2157 28955.96392
563.4197 29184.72203
563.6237 29400.33218
563.8277 29059.83690
564.0316 28904.12983
564.2356 29313.84646
564.4395 29299.94075
564.6434 29462.83619
564.8473 29661.91923
565.0512 29639.98548
565.2551 29620.40690
565.4590 29666.99819
565.6628 29852.29840
565.8666 30088.01961
566.0705 29865.56924
566.2743 29863.17312
566.4780 29957.74831
566.6818 29858.15559
566.8856 30378.23726
567.0893 29931.02232
567.2930 30160.35386
567.4967 29828.66484
567.7004 30082.83825
567.9041 30261.48256
568.1078 30262.58846
568.3114 30488.78661
568.5151 30431.40253
568.7187 30082.44913
568.9223 30239.99937
569.1259 30404.53318
569.3295 30792.99189
569.5330 30778.65611
569.7366 30753.09746
569.9401 30830.06012
570.1436 30914.82555
570.3471 30983.61682
570.5506 30954.92478
570.7541 30975.85502
570.9575 30953.20448
571.1609 30618.40255
571.3644 31194.90576
571.5678 31113.02797
571.7712 31479.51197
571.9746 31388.56168
572.1779 31147.24952
572.3813 31063.13945
572.5846 31255.21844
572.7879 31191.42421
572.9912 31833.62625
573.1945 31664.15684
573.3978 31229.20923
573.6010 31574.39437
573.8043 32081.86054
574.0075 31300.45807
574.2107 31433.06404
574.4139 31447.37934
574.6171 31577.58920
574.8203 31377.46169
575.0234 31785.86762
575.2266 31280.75661
575.4297 31428.82475
575.6328 31633.37587
575.8359 31894.43044
576.0390 31254.54261
576.2420 31360.77075
576.4451 31138.34086
576.6481 31481.94906
576.8512 31973.72779
577.0542 31292.90106
577.2571 31720.02542
577.4601 31720.74221
577.6631 31602.88161
577.8660 31508.92080
578.0689 31325.07465
578.2719 31587.17369
578.4748 31342.62574
578.6776 31299.84367
578.8805 31432.47013
579.0834 30911.42592
579.2862 31386.96427
579.4890 31729.38464
579.6918 31553.73036
579.8946 31216.24559
580.0974 31684.92324
580.3002 31339.86098
580.5029 31193.45170
580.7057 31575.29547
580.9084 31133.83533
581.1111 31728.72929
581.3138 31475.10884
581.5164 31226.52639
581.7191 31063.05753
581.9217 31217.67917
582.1244 31239.22380
582.3270 31268.59167
582.5296 31227.73470
582.7322 31465.21715
582.9347 31373.20192
583.1373 31049.97101
583.3398 31319.27890
583.5424 31074.44423
583.7449 30964.32495
583.9474 30824.96068
584.1498 30778.06220
584.3523 31217.29005
584.5548 30834.23798
584.7572 30999.26330
584.9596 31207.37789
585.1620 31753.69403
585.3644 30878.47410
585.5668 30962.56370
585.7691 31303.50954
585.9715 31103.62779
586.1738 31386.77995
586.3761 31357.65783
586.5784 31552.97261
586.7807 31472.87655
586.9830 31431.11847
587.1852 31357.69879
587.3875 31114.50250
587.5897 31631.14358
587.7919 31338.26357
587.9941 31005.87824
588.1963 31138.68901
588.3984 31546.68535
588.6006 31007.59853
588.8027 31556.08552
589.0048 31219.17419
589.2069 31376.56058
589.4090 31340.86449
589.6111 31576.01226
589.8131 31512.95530
590.0152 31697.96880
590.2172 31592.53937
590.4192 31906.88209
590.6212 31646.56478
590.8232 31409.57384
591.0252 31804.42222
591.2271 31871.34983
591.4291 31861.84726
591.6310 31713.20569
591.8329 31717.24019
592.0348 32080.07881
592.2367 32027.77369
592.4385 32387.31508
592.6404 32456.90506
592.8422 32506.81406
593.0440 32639.85011
593.2458 32895.92812
593.4476 32991.75258
593.6494 33073.24125
593.8512 33254.71177
594.0529 33532.17057
594.2546 33420.12620
594.4563 33383.36516
594.6580 33105.23053
594.8597 33059.45842
595.0614 33164.41682
595.2630 33438.16881
595.4647 33379.63786
595.6663 33091.48866
595.8679 33466.94277
596.0695 33918.90899
596.2711 33683.90458
596.4727 33759.10599
596.6742 34083.79095
596.8757 34187.60249
597.0773 34099.66271
597.2788 33766.35580
597.4802 34096.48836
597.6817 34655.70671
597.8832 34275.11220
598.0846 34656.71021
598.2860 34615.32076
598.4875 34295.01845
598.6889 34856.81724
598.8902 34903.90004
599.0916 34961.50940
599.2930 34573.50124
599.4943 35108.30780
599.6956 35125.18306
599.8969 34897.03935
600.0982 34582.08223
600.2995 34716.87953
600.5008 35484.92925
600.7020 34890.05577
600.9032 35384.25111
601.1045 35160.75628
601.3057 34873.18051
601.5068 35575.12180
601.7080 35610.75645
601.9092 35409.93264
602.1103 35937.14123
602.3115 35859.05219
602.5126 36028.66496
602.7137 35931.55028
602.9147 35917.27594
603.1158 36127.35657
603.3169 36385.05248
603.5179 36191.80615
603.7189 36029.13599
603.9199 36261.66236
604.1209 36210.13547
604.3219 36251.21772
604.5229 36323.75678
604.7238 36532.64959
604.9247 36536.00826
605.1257 36667.24209
605.3266 36859.79212
605.5275 36472.86938
605.7283 36612.41797
605.9292 36784.54974
606.1300 36196.92607
606.3309 36464.84134
606.5317 36824.52609
606.7325 36968.74405
606.9332 37010.64549
607.1340 37264.42978
607.3348 37149.80497
607.5355 36593.20802
607.7362 37576.45830
607.9369 36839.29195
608.1376 37106.03988
608.3383 36848.03678
608.5390 37733.04599
608.7396 37297.46352
608.9402 37899.99640
609.1409 37863.41968
609.3415 37528.39247
609.5421 37441.55860
609.7426 37743.38823
609.9432 37287.36703
610.1437 37146.32342
610.3443 37976.07844
610.5448 37743.94118
610.7453 38045.50458
610.9457 37788.66882
611.1462 37999.95776
611.3467 37845.45900
611.5471 38212.35260
611.7475 37732.82071
611.9479 38495.62763
612.1483 37950.74507
612.3487 38501.68962
612.5491 38305.98573
612.7494 38918.88134
612.9497 38275.98299
613.1501 38693.44094
613.3504 38475.96713
613.5506 39091.50462
613.7509 38798.58365
613.9512 38631.87900
614.1514 38845.25686
614.3516 39222.88182
614.5519 39062.05483
614.7521 39226.52720
614.9522 38859.28545
615.1524 38883.98395
615.3526 39327.69686
615.5527 39948.39523
615.7528 39548.69317
615.9529 39580.00661
616.1530 39962.07566
616.3531 39975.63321
616.5532 39845.09568
616.7532 39388.05050
616.9532 39784.51677
617.1533 39560.20275
617.3533 39943.31626
617.5532 39642.85877
617.7532 39869.22075
617.9532 39030.16796
618.1531 40059.35417
618.3530 39485.18565
618.5530 39785.11068
618.7528 39973.97436
618.9527 40014.44222
619.1526 39586.29387
619.3524 39666.77904
619.5523 39931.82716
619.7521 40039.32504
619.9519 40098.16318
620.1517 40121.16187
620.3515 40401.89743
620.5512 40719.59882
620.7510 40484.73776
620.9507 40172.25869
621.1504 40185.01754
621.3501 40327.72000
621.5498 40560.90172
621.7495 40629.22196
621.9492 40283.17668
622.1488 40077.43774
622.3484 40171.66478
622.5480 40108.85358
622.7476 40822.01774
622.9472 40126.44563
623.1468 40331.95929
623.3463 41460.30816
623.5459 41116.84332
623.7454 40873.36031
623.9449 40919.68537
624.1444 40878.37784
624.3439 41257.02678
624.5433 41039.83969
624.7428 40862.52656
624.9422 40937.29790
625.1416 41057.37030
625.3410 41058.25093
625.5404 40947.00527
625.7398 40952.76006
625.9391 41142.21765
626.1385 40759.06318
626.3378 40844.03340
626.5371 41503.99133
626.7364 40885.15661
626.9357 41316.64315
627.1350 41253.83195
627.3342 40895.68317
627.5335 40675.28078
627.7327 40930.56008
627.9319 40978.74878
628.1311 41957.96456
628.3303 41195.01428
628.5294 41466.14487
628.7286 41569.23961
628.9277 41915.65353
629.1268 41662.36075
629.3259 42267.74032
629.5250 42223.13556
629.7241 42106.13510
629.9231 41365.40528
630.1222 42184.67470
630.3212 42027.14495
630.5202 41667.03012
630.7192 42255.16579
630.9182 41606.22593
631.1171 41834.08293
631.3161 41686.89542
631.5150 41503.23358
631.7140 41778.37818
631.9129 41962.55201
632.1118 42387.79224
632.3106 42172.61217
632.5095 41970.74389
632.7083 41954.58541
632.9072 42023.99107
633.1060 42072.50745
633.3048 42116.94838
633.5036 41641.20524
633.7023 41956.24427
633.9011 42411.81492
634.0998 42280.29436
634.2986 42453.06101
634.4973 42186.21068
634.6960 42290.32941
634.8947 42168.84390
635.0933 42478.27150
635.2920 42119.85649
635.4906 41754.02783
635.6892 42600.71955
635.8878 42620.66677
636.0864 42644.40273
636.2850 42344.82586
636.4836 42346.17752
636.6821 42415.50126
636.8806 42588.16551
637.0792 42502.33514
637.2777 42472.29143
637.4761 42542.20909
637.6746 42316.19526
637.8731 42627.69130
638.0715 42119.34450
638.2699 42844.93983
638.4683 42548.82403
638.6667 41790.23592
638.8651 42621.34260
639.0635 42856.18318
639.2618 42841.47876
639.4602 42753.55946
639.6585 42664.18611
639.8568 42797.79559
640.0551 42844.10016
640.2534 42769.55410
640.4516 42512.39066
640.6499 42717.74049
640.8481 43448.23046
641.0463 43243.16735
641.2445 43494.51456
641.4427 43304.23778
641.6409 42994.23675
641.8390 43324.79939
642.0372 43631.31887
642.2353 43410.19968
642.4334 42884.73186
642.6315 43172.59435
642.8296 43141.23995
643.0277 42948.23937
643.2257 43642.76701
643.4237 43678.34023
643.6218 43611.92460
643.8198 43286.23613
644.0178 43484.02896
644.2157 43370.18237
644.4137 43325.06562
644.6116 44027.31411
644.8096 44326.13323
