# Averages = 100
# wavelength [µm]	intensity
446.8250 14.33578
447.0374 36746.70328
447.2498 1233.88069
447.4621 1220.42554
447.6745 1232.69287
447.8868 1241.99065
448.0992 1224.33716
448.3115 1236.01058
448.5238 1245.98419
448.7360 1232.20136
448.9483 1242.44120
449.1606 1238.93918
449.3728 1270.10926
449.5850 1227.47055
449.7972 1252.86536
450.0094 1232.97959
450.2216 1245.10356
450.4337 1251.37035
450.6459 1722.62843
450.8580 2075.02242
451.0701 2108.03567
451.2822 2139.65631
451.4943 2122.39193
451.7064 2109.55117
451.9184 2113.38087
452.1305 2200.41954
452.3425 2293.82740
452.5545 2199.57988
452.7665 2198.18726
452.9785 2296.05968
453.1905 2332.16537
453.4024 2290.67353
453.6143 2407.91974
453.8263 2387.31717
454.0382 2584.70040
454.2501 2381.99245
454.4619 2357.58067
454.6738 2487.21709
454.8856 2610.50481
455.0975 2418.34390
455.3093 2422.95183
455.5211 2478.45178
455.7329 2453.26177
455.9446 2508.94604
456.1564 2524.49012
456.3681 2604.23802
456.5798 2717.12206
456.7916 2640.36419
457.0033 2618.14373
457.2149 2599.69153
457.4266 2625.65978
457.6382 2659.94277
457.8499 2645.81179
458.0615 2754.31317
458.2731 2653.30735
458.4847 2774.19895
458.6963 2863.87950
458.9078 2905.41231
459.1194 3056.88008
459.3309 3079.10054
459.5424 2909.05769
459.7539 2824.16939
459.9654 2849.76900
460.1769 2886.77579
460.3883 2867.66824
460.5998 2743.00838
460.8112 2731.45784
461.0226 2773.60504
461.2340 2866.58282
461.4454 2842.13007
461.6567 2807.45796
461.8681 2828.81827
462.0794 2785.33990
462.2907 2911.82245
462.5020 3156.96431
462.7133 3246.70630
462.9246 3026.05815
463.1359 2878.50200
463.3471 2768.19840
463.5583 2832.68894
463.7696 3217.33843
463.9808 3041.74559
464.1919 2984.87349
464.4031 2972.44232
464.6143 3006.04949
464.8254 2918.23259
465.0365 2877.72377
465.2476 3152.56117
465.4587 3312.32322
465.6698 2889.99110
465.8809 2965.84786
466.0919 2958.94621
466.3030 3017.86627
466.5140 3037.38341
466.7250 2962.44824
466.9360 3089.85237
467.1469 3021.83933
467.3579 2830.62049
467.5688 2824.64042
467.7798 3059.09188
467.9907 3163.88644
468.2016 3077.23688
468.4125 3015.79782
468.6233 2862.20017
468.8342 2905.14607
469.0450 3064.86715
469.2559 3174.29012
469.4667 3108.89848
469.6775 2871.08835
469.8882 3042.50333
470.0990 3010.47310
470.3098 3274.88635
470.5205 3112.95346
470.7312 3174.16725
470.9419 3397.66208
471.1526 3295.22268
471.3633 3025.15704
471.5739 3053.80812
471.7846 3036.25703
471.9952 2975.80099
472.2058 3076.80681
472.4164 3049.26163
472.6270 3040.23009
472.8376 3161.63368
473.0481 3353.22115
473.2587 3421.33659
473.4692 3332.72099
473.6797 3219.22256
473.8902 2983.11224
474.1007 2974.75653
474.3111 2998.84064
474.5216 2925.48240
474.7320 3037.87493
474.9424 3211.56315
475.1528 3269.00868
475.3632 3138.45067
475.5736 3077.29832
475.7840 3085.63356
475.9943 3128.02651
476.2046 3149.59162
476.4149 3219.20208
476.6252 3246.48102
476.8355 3347.81452
477.0458 3416.58531
477.2561 3413.24712
477.4663 3255.08249
477.6765 3267.08359
477.8867 3294.99740
478.0969 3275.33690
478.3071 3264.11403
478.5173 3368.62188
478.7274 3335.83390
478.9375 3389.63404
479.1477 3365.30417
479.3578 3485.47898
479.5679 3457.19653
479.7779 3485.17178
479.9880 3483.16477
480.1980 3525.37341
480.4081 3531.51731
480.6181 3403.66262
480.8281 3523.01824
481.0381 3445.56406
481.2480 3449.33233
481.4580 3530.71860
481.6679 3489.49299
481.8778 3449.90576
482.0877 3461.23103
482.2976 3374.02852
482.5075 3457.64708
482.7174 3550.17431
482.9272 3586.40288
483.1371 3462.02973
483.3469 3512.02065
483.5567 3638.38032
483.7665 3527.89241
483.9762 3581.77447
484.1860 3695.35481
484.3957 3712.59871
484.6055 3566.39422
484.8152 3640.53069
485.0249 3758.30937
485.2346 3742.72433
485.4442 3725.43947
485.6539 3774.71360
485.8635 3749.76934
486.0732 3642.72202
486.2828 3659.72016
486.4924 3669.05889
486.7019 3776.59773
486.9115 3726.77065
487.1210 3739.18134
487.3306 3867.32275
487.5401 3847.74417
487.7496 3880.20447
487.9591 3931.93616
488.1686 3874.96167
488.3780 3824.80692
488.5875 3933.59502
488.7969 4018.19661
489.0063 3993.35475
489.2157 4040.56043
489.4251 3983.89313
489.6345 3949.03670
489.8438 4066.50819
490.0531 3894.80649
490.2625 3971.42100
490.4718 4056.71890
490.6811 4113.87771
490.8903 4132.49374
491.0996 4164.58541
491.3089 4162.37361
491.5181 4219.57337
491.7273 4230.63240
491.9365 4212.18021
492.1457 4281.97498
492.3549 4293.48457
492.5640 4217.97596
492.7732 4282.36410
492.9823 4328.44339
493.1914 4453.22613
493.4005 4444.23555
493.6096 4392.03282
493.8187 4361.06753
494.0277 4446.83647
494.2368 4446.07872
494.4458 4484.15046
494.6548 4548.70243
494.8638 4603.28080
495.0728 4579.03285
495.2817 4591.03395
495.4907 4603.71087
495.6996 4628.10218
495.9085 4652.26821
496.1174 4707.44049
496.3263 4708.97647
496.5352 4732.50763
496.7440 4817.12970
496.9529 4848.85273
497.1617 4820.54980
497.3705 4836.97451
497.5793 4947.79010
497.7881 4839.67783
497.9969 4943.36649
498.2056 4991.41184
498.4144 5020.45203
498.6231 5072.98243
498.8318 5074.70273
499.0405 5093.40068
499.2492 5061.63668
499.4578 5165.67350
499.6665 5138.64031
499.8751 5254.00239
500.0837 5264.54943
500.2923 5279.41768
500.5009 5311.57079
500.7095 5408.89027
500.9180 5370.12222
501.1266 5443.82861
501.3351 5446.51145
501.5436 5538.11709
501.7521 5523.92467
501.9606 5596.01317
502.1691 5648.05206
502.3775 5598.36833
502.5860 5670.29300
502.7944 5691.32564
503.0028 5773.73590
503.2112 5769.80380
503.4196 5819.44656
503.6279 5870.07235
503.8363 5818.38162
504.0446 5979.37244
504.2529 5927.04684
504.4612 6010.68588
504.6695 6091.96976
504.8778 6090.76146
505.0860 6098.11367
505.2943 6106.91993
505.5025 6194.28628
505.7107 6231.98939
505.9189 6292.22015
506.1271 6327.87528
506.3353 6323.92270
506.5434 6307.27272
506.7516 6423.14679
506.9597 6465.13015
507.1678 6525.36091
507.3759 6520.58914
507.5840 6581.33190
507.7920 6637.89679
508.0001 6630.21691
508.2081 6753.79134
508.4161 6738.67733
508.6241 6923.36316
508.8321 6898.64417
509.0401 6858.01247
509.2480 6975.25868
509.4560 6971.36754
509.6639 7055.51858
509.8718 7076.96081
510.0797 7192.63009
510.2876 7211.30756
510.4955 7314.17703
510.7033 7332.71115
510.9112 7371.43824
511.1190 7493.41526
511.3268 7437.52619
511.5346 7519.64974
511.7424 7551.55709
511.9501 7665.46511
512.1579 7717.93407
512.3656 7757.45987
512.5733 7722.31672
512.7810 7858.62953
512.9887 7908.78428
513.1964 7958.40656
513.4040 7983.82185
513.6117 8039.62900
513.8193 8137.41951
514.0269 8139.63132
514.2345 8269.92309
514.4421 8217.00358
514.6497 8238.50725
514.8572 8392.55546
515.0647 8442.75117
515.2723 8499.41847
515.4798 8567.32911
515.6873 8660.57313
515.8947 8710.21589
516.1022 8704.19486
516.3097 8783.71749
516.5171 8885.93161
516.7245 8927.97641
516.9319 9005.06195
517.1393 9032.73001
517.3467 9069.79824
517.5540 9085.93624
517.7614 9281.64013
517.9687 9326.98216
518.1760 9345.47532
518.3833 9493.15434
518.5906 9495.57095
518.7978 9661.68169
519.0051 9622.09446
519.2123 9782.81904
519.4196 9600.95942
519.6268 9774.95484
519.8340 9843.80755
520.0411 9882.06361
520.2483 10094.35605
520.4554 10056.14095
520.6626 10320.22652
520.8697 10241.03157
521.0768 10462.76515
521.2839 10438.12808
521.4909 10459.20168
521.6980 10599.71282
521.9050 10777.29219
522.1121 10683.41330
522.3191 10920.71144
522.5261 10901.00998
522.7331 10920.67048
522.9400 11135.62528
523.1470 11174.65957
523.3539 11298.86887
523.5608 11295.96075
523.7677 11297.76297
523.9746 11439.95344
524.1815 11713.09103
524.3884 11635.47301
524.5952 11646.69588
524.8020 11931.17922
525.0089 11858.18962
525.2157 11969.59912
525.4225 12037.59168
525.6292 12060.34461
525.8360 12174.84654
526.0427 12260.08300
526.2494 12422.40501
526.4562 12420.60279
526.6629 12516.77541
526.8695 12521.54717
527.0762 12794.95100
527.2829 12842.42292
527.4895 12988.11541
527.6961 13117.05553
527.9027 13228.36263
528.1093 13307.33230
528.3159 13332.23560
528.5224 13274.01185
528.7290 13624.76746
528.9355 13468.77368
529.1420 13844.30971
529.3485 13742.87382
529.5550 13965.69282
529.7615 13894.54638
529.9680 14045.87079
530.1744 14062.60270
530.3808 14250.13520
530.5872 14203.74870
530.7936 14362.75300
531.0000 14413.76790
531.2064 14584.91665
531.4127 14692.94700
531.6191 14812.05686
531.8254 14907.75844
532.0317 15073.56199
532.2380 15021.09303
532.4443 15179.46246
532.6505 15027.05262
532.8568 15305.57637
533.0630 15607.30361
533.2692 15541.95293
533.4754 15681.91111
533.6816 15888.42828
533.8878 15794.97946
534.0939 16083.57922
534.3001 16120.01258
534.5062 16207.64517
534.7123 16114.44211
534.9184 16263.65711
535.1245 16413.77322
535.3306 16409.53393
535.5366 16721.29621
535.7426 16749.21002
535.9487 16859.96417
536.1547 16852.20237
536.3607 17154.11393
536.5666 17029.12639
536.7726 17143.48497
536.9785 17365.73054
537.1845 17566.69771
537.3904 17428.93085
537.5963 17456.74227
537.8022 17728.20053
538.0080 17867.23712
538.2139 17950.69185
538.4197 18092.88232
538.6256 18026.65101
538.8314 18119.83359
539.0372 18235.48238
539.2430 18628.91766
539.4487 18420.68020
539.6545 18744.46406
539.8602 18667.33755
540.0659 18849.54533
540.2716 19260.16307
540.4773 19246.50312
540.6830 19383.02071
540.8887 19497.29737
541.0943 19277.16121
541.2999 19393.62919
541.5056 19449.31346
541.7112 19686.85736
541.9167 19582.61575
542.1223 19612.02458
542.3279 20000.01226
542.5334 20092.04797
542.7389 20281.50556
542.9444 20357.48520
543.1499 20464.14342
543.3554 20426.23552
543.5609 20737.54725
543.7663 20792.57617
543.9718 20602.85234
544.1772 20810.45493
544.3826 20835.89070
544.5880 21418.33302
544.7934 21288.53276
544.9987 21306.18625
545.2041 21721.98534
545.4094 21655.79499
545.6147 21709.32890
545.8200 21995.34821
546.0253 21911.19718
546.2306 22263.50924
546.4358 22012.34635
546.6411 22370.57705
546.8463 22210.34397
547.0515 22534.72174
547.2567 22670.13344
547.4619 22778.26619
547.6670 22841.81466
547.8722 23008.02780
548.0773 23288.35376
548.2824 23245.69457
548.4876 23383.50239
548.6926 23495.21909
548.8977 23562.65870
549.1028 23715.70340
549.3078 23870.50936
549.5129 23903.99365
549.7179 24003.01294
549.9229 24109.60971
550.1279 24059.63927
550.3328 24431.69376
550.5378 24133.98054
550.7427 24453.87326
550.9476 24658.13766
551.1526 24163.04122
551.3575 24746.44607
551.5623 24856.44247
551.7672 24759.57355
551.9720 24826.89029
552.1769 24946.57358
552.3817 25146.94684
552.5865 25015.11909
552.7913 25240.04750
552.9961 25101.60481
553.2008 25341.97491
553.4056 25615.27634
553.6103 25577.88043
553.8150 25836.12929
554.0197 25914.91464
554.2244 25807.27341
554.4291 25883.47832
554.6337 26287.31728
554.8384 26089.89309
555.0430 26321.49788
555.2476 26057.26895
555.4522 26088.82815
555.6568 26458.05644
555.8613 26596.21241
556.0659 26746.14420
556.2704 26438.10922
556.4750 26765.43607
556.6795 26974.34936
556.8839 26702.93206
557.0884 27165.03573
557.2929 27118.73115
557.4973 26892.43061
557.7018 27025.11850
557.9062 27171.28203
558.1106 27168.31248
558.3150 27022.70190
558.5193 27389.34975
558.7237 27460.35282
558.9280 27256.19082
559.1323 27442.22830
559.3367 27313.88210
559.5410 27575.79682
559.7452 27308.61882
559.9495 27665.53881
560.1537 27611.82059
560.3580 27571.35273
560.5622 27766.01216
560.7664 27990.01898
560.9706 27907.03529
561.1748 28063.99161
561.3789 28094.93642
561.5831 28117.17736
561.7872 28010.90826
561.9913 28322.07663
562.1954 28197.90829
562.3995 28346.89801
562.6036 28399.16218
562.8076 28197.92877
563.0117 28457.32449
563.2157 28352.44801
563.4197 28594.57935
563.6237 28744.42923
563.8277 28476.30916
564.0316 28253.94071
564.2356 28657.96399
564.4395 28644.77507
564.6434 28838.57435
564.8473 29009.98934
565.0512 28975.84970
565.2551 28964.44251
565.4590 29024.91903
565.6628 29176.38680
565.8666 29477.09005
566.0705 29210.56740
566.2743 29240.97973
566.4780 29331.17228
566.6818 29250.42087
566.8856 29740.33595
567.0893 29338.74976
567.2930 29522.32968
567.4967 29269.32362
567.7004 29443.93343
567.9041 29637.95799
568.1078 29639.39157
568.3114 29835.21834
568.5151 29781.80732
568.7187 29370.75951
568.9223 29633.26815
569.1259 29801.28350
569.3295 30187.46897
569.5330 30123.71570
569.7366 30199.83870
569.9401 30266.95064
570.1436 30318.12938
570.3471 30385.42563
570.5506 30404.84037
570.7541 30334.08305
570.9575 30336.84781
571.1609 30077.57497
571.3644 30621.57690
571.5678 30547.48140
571.7712 30924.98348
571.9746 30795.18322
572.1779 30587.82638
572.3813 30478.89492
572.5846 30703.72093
572.7879 30625.77524
572.9912 31202.99523
573.1945 31062.38170
573.3978 30679.12483
573.6010 31005.63248
573.8043 31560.01762
574.0075 30807.98302
574.2107 31011.71495
574.4139 30934.26077
574.6171 31076.49220
574.8203 30879.82576
575.0234 31311.16894
575.2266 30804.91107
575.4297 30922.87407
575.6328 31032.25608
575.8359 31334.96634
576.0390 30701.42721
576.2420 30828.95422
576.4451 30581.86679
576.6481 30967.80650
576.8512 31416.14782
577.0542 30798.56236
577.2571 31255.62803
577.4601 31260.62507
577.6631 31077.63907
577.8660 30975.62974
578.0689 30882.75436
578.2719 31093.49034
578.4748 30908.47685
578.6776 30839.33742
578.8805 31000.02105
579.0834 30523.33584
579.2862 30924.18477
579.4890 31298.77873
579.6918 31140.69602
579.8946 30828.44223
580.0974 31279.91694
580.3002 31003.50260
580.5029 30811.73080
580.7057 31173.29969
580.9084 30669.90897
581.1111 31231.21624
581.3138 31006.71791
581.5164 30772.51220
581.7191 30639.90622
581.9217 30788.30204
582.1244 30809.72379
582.3270 30839.29646
582.5296 30761.47365
582.7322 31033.23910
582.9347 30869.42208
583.1373 30630.42413
583.3398 30869.27873
583.5424 30660.26303
583.7449 30666.09975
583.9474 30479.12020
584.1498 30370.10682
584.3523 30754.22384
584.5548 30367.85406
584.7572 30566.83470
584.9596 30678.46948
585.1620 31196.13454
585.3644 30415.10070
585.5668 30490.26115
585.7691 30822.03209
585.9715 30630.15789
586.1738 30859.40752
586.3761 30850.56029
586.5784 31087.38740
586.7807 30976.51037
586.9830 30897.25398
587.1852 30922.32112
587.3875 30614.90053
587.5897 31168.77367
587.7919 30897.62261
587.9941 30546.53933
588.1963 30654.69256
588.3984 31073.97320
588.6006 30520.46869
588.8027 31121.67039
589.0048 30799.44299
589.2069 30905.85545
589.4090 30936.96409
589.6111 31154.64269
589.8131 31003.64595
590.0152 31173.93456
590.2172 31068.93520
590.4192 31399.14968
590.6212 31131.00913
590.8232 30895.77944
591.0252 31300.13039
591.2271 31405.39598
591.4291 31413.87457
591.6310 31257.92175
591.8329 31253.86678
592.0348 31530.30160
592.2367 31569.86835
592.4385 31867.84781
592.6404 31991.01265
592.8422 32021.60930
593.0440 32122.38984
593.2458 32398.18980
593.4476 32470.99508
593.6494 32518.38508
593.8512 32744.46035
594.0529 33053.43740
594.2546 32909.85431
594.4563 32851.46672
594.6580 32602.72043
594.8597 32527.70334
595.0614 32645.93257
595.2630 32891.38163
595.4647 32851.13904
595.6663 32569.44094
595.8679 32892.81521
596.0695 33374.37458
596.2711 33216.29187
596.4727 33237.01732
596.6742 33548.41096
596.8757 33706.43223
597.0773 33666.57876
597.2788 33359.15817
597.4802 33664.89943
597.6817 34095.87397
597.8832 33803.58787
598.0846 34147.97430
598.2860 34124.34074
598.4875 33797.34157
598.6889 34391.72354
598.8902 34416.99547
599.0916 34416.91355
599.2930 34073.94022
599.4943 34586.69016
599.6956 34663.24323
599.8969 34422.19731
600.0982 34120.98207
600.2995 34337.02229
600.5008 35053.85231
600.7020 34437.29084
600.9032 35002.40734
601.1045 34725.15333
601.3057 34441.26390
601.5068 35031.11986
601.7080 35063.31393
601.9092 34853.08994
602.1103 35455.58186
602.3115 35317.34397
602.5126 35644.05643
602.7137 35489.72150
602.9147 35498.73256
603.1158 35637.44149
603.3169 35811.00684
603.5179 35660.17394
603.7189 35546.88031
603.9199 35723.98865
604.1209 35768.36813
604.3219 35807.99633
604.5229 35853.80939
604.7238 36022.11146
604.9247 36013.32567
605.1257 36206.18289
605.3266 36400.24841
605.5275 35995.79506
605.7283 36192.35910
605.9292 36390.21336
606.1300 35826.61236
606.3309 36067.88356
606.5317 36317.14184
606.7325 36468.60960
606.9332 36518.58004
607.1340 36752.70383
607.3348 36631.50504
607.5355 36078.06196
607.7362 37014.04512
607.9369 36354.14863
608.1376 36637.87422
608.3383 36347.69753
608.5390 37159.61474
608.7396 36804.72224
608.9402 37332.11515
609.1409 37306.47458
609.3415 37010.35878
609.5421 36871.42458
609.7426 37197.85032
609.9432 36812.38164
610.1437 36764.78685
610.3443 37574.81992
610.5448 37384.97322
610.7453 37719.77515
610.9457 37428.28776
611.1462 37559.54208
611.3467 37417.24921
611.5471 37830.34499
611.7475 37313.64247
611.9479 38043.16990
612.1483 37499.72091
612.3487 38015.54280
612.5491 37883.89937
612.7494 38510.98740
612.9497 37811.81087
613.1501 38193.14265
613.3504 37984.33176
613.5506 38591.73881
613.7509 38250.26050
613.9512 38276.92505
614.1514 38428.02419
614.3516 38801.88088
614.5519 38646.95205
614.7521 38731.47172
614.9522 38416.96515
615.1524 38492.57616
615.3526 38953.24625
615.5527 39521.49614
615.7528 39063.81608
615.9529 39065.67974
616.1530 39445.86465
616.3531 39454.28181
616.5532 39409.02170
616.7532 38899.85571
616.9532 39263.34968
617.1533 39107.76549
617.3533 39428.66172
617.5532 39154.37726
617.7532 39326.03800
617.9532 38541.46118
618.1531 39475.84692
618.3530 38986.27999
618.5530 39304.32953
618.7528 39504.51848
618.9527 39575.15292
619.1526 39211.20840
619.3524 39193.67778
619.5523 39429.19419
619.7521 39598.47929
619.9519 39615.62078
620.1517 39523.81035
620.3515 39873.95156
620.5512 40177.21478
620.7510 39977.00535
620.9507 39683.77718
621.1504 39749.90610
621.3501 39804.46398
621.5498 40053.35363
621.7495 40138.91776
621.9492 39672.45192
622.1488 39500.91405
622.3484 39569.02950
622.5480 39593.64608
622.7476 40300.48201
622.9472 39608.04330
623.1468 39879.23532
623.3463 40892.18115
623.5459 40648.18615
623.7454 40409.27011
623.9449 40382.46220
624.1444 40374.45465
624.3439 40753.69750
624.5433 40543.14583
624.7428 40402.65517
624.9422 40485.22927
625.1416 40610.17585
625.3410 40584.71960
625.5404 40522.80950
625.7398 40498.17244
625.9391 40648.00183
626.1385 40153.78601
626.3378 40221.26658
626.5371 40938.03517
626.7364 40313.71189
626.9357 40739.25932
627.1350 40725.29217
627.3342 40357.35411
627.5335 40232.98096
627.7327 40430.67139
627.9319 40432.30976
628.1311 41426.41427
628.3303 40595.32807
628.5294 40809.25889
628.7286 40994.27239
628.9277 41414.57701
629.1268 41136.46286
629.3259 41817.47391
629.5250 41702.19375
629.7241 41600.22538
629.9231 40855.80922
630.1222 41633.46391
630.3212 41456.60133
630.5202 41116.94572
630.7192 41596.58000
630.9182 41147.58333
631.1171 41415.37572
631.3161 41158.47852
631.5150 40999.57663
631.7140 41270.93249
631.9129 41520.21124
632.1118 41946.80313
632.3106 41676.83989
632.5095 41422.83033
632.7083 41362.96820
632.9072 41458.46498
633.1060 41502.86495
633.3048 41584.35362
633.5036 41021.96093
633.7023 41392.58183
633.9011 41879.62976
634.0998 41718.20886
634.2986 41804.48978
634.4973 41595.37170
634.6960 41714.13340
634.8947 41583.49348
635.0933 41895.68583
635.2920 41531.88466
635.4906 41207.28162
635.6892 41936.78857
635.8878 42131.71423
636.0864 42082.46058
636.2850 41745.24205
636.4836 41821.52888
636.6821 41885.20023
636.8806 42049.75452
637.0792 41945.20572
637.2777 41953.80719
637.4761 42061.26411
637.6746 41805.96432
637.8731 42196.61436
638.0715 41637.12978
638.2699 42367.25112
638.4683 41971.64499
638.6667 41174.90323
638.8651 41941.74465
639.0635 42231.92134
639.2618 42221.39478
639.4602 42177.79353
639.6585 42073.90007
639.8568 42114.14266
640.0551 42283.85783
640.2534 42184.55183
640.4516 41901.56350
640.6499 42129.31811
640.8481 42921.61578
641.0463 42642.78483
641.2445 42918.48239
641.4427 42729.29103
641.6409 42439.42154
641.8390 42674.46691
642.0372 43018.91477
642.2353 42846.86492
642.4334 42268.80526
642.6315 42541.75853
642.8296 42506.98402
643.0277 42308.92497
643.2257 42961.10062
643.4237 43017.84983
643.6218 42920.85803
643.8198 42637.68539
644.0178 42867.85660
644.2157 42755.38215
644.4137 42682.90454
644.6116 43390.70302
644.8096 43676.92713
