# Averages = 100
# wavelength [µm]	intensity
446.8250 14.33578
447.0374 36746.70328
447.2498 1231.48457
447.4621 1220.24122
447.6745 1232.56999
447.8868 1240.72091
448.0992 1240.10652
448.3115 1235.25283
448.5238 1254.42182
448.7360 1231.87368
448.9483 1241.43770
449.1606 1245.39028
449.3728 1271.07180
449.5850 1234.49508
449.7972 1248.25743
450.0094 1240.29083
450.2216 1251.77994
450.4337 1251.82090
450.6459 1737.76292
450.8580 2101.09306
451.0701 2133.53288
451.2822 2157.00261
451.4943 2141.41756
451.7064 2130.39949
451.9184 2118.95135
452.1305 2221.04259
452.3425 2316.51889
452.5545 2222.41473
452.7665 2234.92782
452.9785 2322.13033
453.1905 2355.71701
453.4024 2319.16077
453.6143 2426.94537
453.8263 2410.13154
454.0382 2614.66218
454.2501 2401.73487
454.4619 2380.27216
454.6738 2514.33219
454.8856 2647.88024
455.0975 2445.88908
455.3093 2444.78318
455.5211 2503.15028
455.7329 2481.54421
455.9446 2540.97627
456.1564 2553.77607
456.3681 2641.98209
456.5798 2745.01539
456.7916 2675.69165
457.0033 2647.26585
457.2149 2615.85000
457.4266 2663.21952
457.6382 2693.61138
457.8499 2661.49923
458.0615 2781.71499
458.2731 2689.96599
458.4847 2805.02088
458.6963 2910.77798
458.9078 2933.14180
459.1194 3094.95181
459.3309 3105.56029
459.5424 2952.43367
459.7539 2857.67415
459.9654 2872.48097
460.1769 2920.30104
460.3883 2904.34736
460.5998 2766.86722
460.8112 2757.97904
461.0226 2808.40003
461.2340 2902.72947
461.4454 2864.14574
461.6567 2844.11660
461.8681 2857.36696
462.0794 2812.04541
462.2907 2925.91247
462.5020 3191.61594
462.7133 3282.83247
462.9246 3052.66126
463.1359 2910.06120
463.3471 2779.01167
463.5583 2852.53375
463.7696 3254.20186
463.9808 3089.11510
464.1919 3011.27181
464.4031 3006.29525
464.6143 3032.38637
464.8254 2953.06854
465.0365 2893.88224
465.2476 3179.94252
465.4587 3346.17614
465.6698 2924.21266
465.8809 2993.88456
466.0919 2992.32810
466.3030 3032.75500
466.5140 3070.49907
466.7250 2983.60375
466.9360 3128.88666
467.1469 3058.37509
467.3579 2852.04224
467.5688 2840.86033
467.7798 3095.58668
467.9907 3204.06759
468.2016 3103.49184
468.4125 3054.79115
468.6233 2891.17892
468.8342 2932.13830
469.0450 3108.48889
469.2559 3214.69655
469.4667 3156.14512
469.6775 2919.11322
469.8882 3077.66696
470.0990 3054.05388
470.3098 3325.96269
470.5205 3151.00472
470.7312 3225.07975
470.9419 3436.98308
471.1526 3324.48815
471.3633 3051.26864
471.5739 3080.53411
471.7846 3069.12693
471.9952 2995.83013
472.2058 3114.24368
472.4164 3071.62545
472.6270 3069.43412
472.8376 3204.02663
473.0481 3387.87278
473.2587 3461.29246
473.4692 3369.05195
473.6797 3267.73894
473.8902 3029.25298
474.1007 3001.44156
474.3111 3031.38286
474.5216 2960.74842
474.7320 3071.05202
474.9424 3237.03989
475.1528 3303.86511
475.3632 3152.39734
475.5736 3119.52744
475.7840 3115.71822
475.9943 3174.96595
476.2046 3180.04492
476.4149 3247.13637
476.6252 3268.43525
476.8355 3383.44917
477.0458 3470.52880
477.2561 3453.42826
477.4663 3306.22027
477.6765 3315.62045
477.8867 3325.16398
478.0969 3314.84222
478.3071 3306.93706
478.5173 3396.92481
478.7274 3382.83478
478.9375 3445.93270
479.1477 3407.96336
479.3578 3537.41546
479.5679 3489.18580
479.7779 3524.49278
479.9880 3525.00477
480.1980 3570.83831
480.4081 3574.17650
480.6181 3446.54709
480.8281 3558.65290
481.0381 3507.31032
481.2480 3493.22030
481.4580 3579.58314
481.6679 3546.16029
481.8778 3489.67731
482.0877 3511.24242
482.2976 3410.33900
482.5075 3498.64741
482.7174 3578.76395
482.9272 3645.85541
483.1371 3517.98024
483.3469 3566.33278
483.5567 3691.34079
483.7665 3574.27890
483.9762 3626.35875
484.1860 3769.38888
484.3957 3760.64406
484.6055 3626.13347
484.8152 3687.92069
485.0249 3817.74143
485.2346 3801.78775
485.4442 3786.50990
485.6539 3824.45876
485.8635 3817.22943
486.0732 3687.01958
486.2828 3720.72915
486.4924 3708.68709
486.7019 3829.21005
486.9115 3791.81414
487.1210 3788.98794
487.3306 3915.67529
487.5401 3899.06626
487.7496 3942.60608
487.9591 3986.18685
488.1686 3939.18597
488.3780 3884.97624
488.5875 3996.83629
488.7969 4088.29858
489.0063 4063.74343
489.2157 4115.67992
489.4251 4036.09585
489.6345 4014.85842
489.8438 4121.78287
490.0531 3954.38190
490.2625 4026.12225
490.4718 4114.20538
490.6811 4177.52858
490.8903 4195.10015
491.0996 4228.13388
491.3089 4238.70140
491.5181 4287.11538
491.7273 4291.53900
491.9365 4275.13477
492.1457 4345.97400
492.3549 4365.55259
492.5640 4282.20026
492.7732 4334.99689
492.9823 4411.14037
493.1914 4518.78161
493.4005 4508.68512
493.6096 4449.94938
493.8187 4426.84829
494.0277 4515.75061
494.2368 4520.15375
494.4458 4569.24356
494.6548 4621.75348
494.8638 4677.35583
495.0728 4640.71767
495.2817 4653.78371
495.4907 4689.62316
495.6996 4710.47148
495.9085 4728.92368
496.1174 4806.68505
496.3263 4785.91865
496.5352 4815.83947
496.7440 4908.87870
496.9529 4932.59417
497.1617 4874.94385
497.3705 4926.26595
497.5793 5038.43320
497.7881 4931.48827
497.9969 5025.63339
498.2056 5083.11988
498.4144 5112.22151
498.6231 5158.38273
498.8318 5176.75301
499.0405 5197.06886
499.2492 5173.16906
499.4578 5243.59871
499.6665 5231.51569
499.8751 5365.26853
500.0837 5354.78293
500.2923 5379.48143
500.5009 5400.10448
500.7095 5514.56545
500.9180 5472.04962
501.1266 5550.32299
501.3351 5561.09530
501.5436 5651.73840
501.7521 5619.54433
501.9606 5726.40734
502.1691 5755.11986
502.3775 5716.92525
502.5860 5778.56910
502.7944 5822.76427
503.0028 5891.80130
503.2112 5891.18691
503.4196 5939.92856
503.6279 5984.53332
503.8363 5936.85661
504.0446 6098.19559
504.2529 6060.98400
504.4612 6139.11400
504.6695 6227.70913
504.8778 6219.86541
505.0860 6257.73235
505.2943 6237.68274
505.5025 6333.71199
505.7107 6346.81899
505.9189 6419.54236
506.1271 6484.97497
506.3353 6477.37700
506.5434 6457.18403
506.7516 6556.24428
506.9597 6631.36377
507.1678 6678.75377
507.3759 6643.48775
507.5840 6716.14968
507.7920 6779.45239
508.0001 6792.21124
508.2081 6917.19877
508.4161 6882.30138
508.6241 7060.41323
508.8321 7030.90200
509.0401 6993.62896
509.2480 7128.89730
509.4560 7114.25432
509.6639 7202.23506
509.8718 7219.86807
510.0797 7377.80742
510.2876 7384.46332
510.4955 7465.41952
510.7033 7483.81028
510.9112 7530.07390
511.1190 7638.67768
511.3268 7589.54691
511.5346 7688.01325
511.7424 7724.95860
511.9501 7835.85611
512.1579 7871.44981
512.3656 7909.99258
512.5733 7878.72010
512.7810 8020.78769
512.9887 8107.23245
513.1964 8136.02689
513.4040 8164.08406
513.6117 8239.71555
513.8193 8333.43060
514.0269 8346.72192
514.2345 8473.38878
514.4421 8400.74733
514.6497 8424.19658
514.8572 8586.70290
515.0647 8644.61945
515.2723 8712.55058
515.4798 8787.34239
515.6873 8853.20507
515.8947 8923.42992
516.1022 8891.68640
516.3097 8990.52137
516.5171 9096.87239
516.7245 9161.32197
516.9319 9241.11083
517.1393 9276.90932
517.3467 9260.36174
517.5540 9246.08739
517.7614 9512.77388
517.9687 9532.88494
518.1760 9561.82274
518.3833 9723.34603
518.5906 9708.88737
518.7978 9902.33850
519.0051 9850.54537
519.2123 10028.43194
519.4196 9831.31494
519.6268 10019.95335
519.8340 10102.56840
520.0411 10143.05675
520.2483 10361.47261
520.4554 10355.61542
520.6626 10624.18605
520.8697 10542.96360
521.0768 10757.73409
521.2839 10698.93690
521.4909 10736.82433
521.6980 10878.05225
521.9050 11066.24010
522.1121 10991.81692
522.3191 11233.23147
522.5261 11218.54754
522.7331 11261.41152
522.9400 11461.96910
523.1470 11482.85838
523.3539 11601.72249
523.5608 11622.69369
523.7677 11644.15640
523.9746 11762.20132
524.1815 12040.66363
524.3884 11955.75485
524.5952 11949.07847
524.8020 12232.53782
525.0089 12150.00468
525.2157 12306.22374
525.4225 12355.27259
525.6292 12418.10427
525.8360 12489.86510
526.0427 12621.81572
526.2494 12790.89602
526.4562 12751.88222
526.6629 12867.05998
526.8695 12889.30092
527.0762 13142.20458
527.2829 13213.78109
527.4895 13310.34282
527.6961 13410.50897
527.9027 13516.51183
528.1093 13586.59332
528.3159 13673.61151
528.5224 13613.44219
528.7290 14009.68319
528.9355 13821.57726
529.1420 14221.62747
529.3485 14113.92480
529.5550 14307.27353
529.7615 14243.31546
529.9680 14395.11090
530.1744 14457.55347
530.3808 14675.58022
530.5872 14580.24728
530.7936 14770.01206
531.0000 14821.35464
531.2064 15022.85429
531.4127 15098.97728
531.6191 15197.48458
531.8254 15293.86199
532.0317 15521.37084
532.2380 15433.14435
532.4443 15577.83334
532.6505 15425.64878
532.8568 15678.14285
533.0630 16046.81818
533.2692 15948.12657
533.4754 16089.82552
533.6816 16300.86870
533.8878 16191.22046
534.0939 16542.28326
534.3001 16567.53472
534.5062 16675.72890
534.7123 16562.16904
534.9184 16693.36192
535.1245 16828.87601
535.3306 16861.27487
535.5366 17214.77476
535.7426 17233.51367
535.9487 17272.01549
536.1547 17280.06400
536.3607 17594.07905
536.5666 17461.84171
536.7726 17639.05245
536.9785 17835.30929
537.1845 17993.31008
537.3904 17861.05226
537.5963 17947.35366
537.8022 18157.24998
538.0080 18318.34320
538.2139 18395.28539
538.4197 18561.70333
538.6256 18499.83419
538.8314 18571.75885
539.0372 18734.03990
539.2430 19091.12373
539.4487 18894.19105
539.6545 19228.87011
539.8602 19149.24508
540.0659 19348.24620
540.2716 19751.32741
540.4773 19832.32458
540.6830 19947.29754
540.8887 20093.05148
541.0943 19846.68084
541.2999 19997.55470
541.5056 20019.50892
541.7112 20264.73270
541.9167 20143.08336
542.1223 20191.66118
542.3279 20562.24112
542.5334 20636.31615
542.7389 20877.01392
542.9444 20924.21960
543.1499 21036.67356
543.3554 20986.66216
543.5609 21364.61480
543.7663 21370.55391
543.9718 21240.09830
544.1772 21408.97380
544.3826 21451.16196
544.5880 22045.25721
544.7934 21868.59943
544.9987 21956.12961
545.2041 22325.39886
545.4094 22288.67878
545.6147 22282.76015
545.8200 22591.67575
546.0253 22539.12488
546.2306 22822.01080
546.4358 22658.62385
546.6411 22997.58316
546.8463 22869.93327
547.0515 23131.52032
547.2567 23296.93475
547.4619 23361.60960
547.6670 23468.47261
547.8722 23586.18986
548.0773 23911.69401
548.2824 23918.26799
548.4876 24073.36066
548.6926 24120.79162
548.8977 24257.22730
549.1028 24355.83699
549.3078 24594.71207
549.5129 24560.28571
549.7179 24707.08411
549.9229 24879.46164
550.1279 24743.59940
550.3328 25110.84115
550.5378 24816.24085
550.7427 25144.71456
550.9476 25350.76069
551.1526 24809.54399
551.3575 25406.77264
551.5623 25504.25595
551.7672 25393.89091
551.9720 25491.51758
552.1769 25642.67816
552.3817 25828.57228
552.5865 25707.72165
552.7913 25895.23366
552.9961 25796.76733
553.2008 26004.30848
553.4056 26304.88885
553.6103 26225.98062
553.8150 26486.74848
554.0197 26554.96632
554.2244 26427.76698
554.4291 26485.51970
554.6337 26961.93867
554.8384 26731.29643
555.0430 26954.54550
555.2476 26717.22688
555.4522 26718.06655
555.6568 27113.65219
555.8613 27249.22772
556.0659 27348.08317
556.2704 27081.08949
556.4750 27378.72079
556.6795 27602.62521
556.8839 27304.56384
557.0884 27783.23558
557.2929 27705.04413
557.4973 27503.85168
557.7018 27661.56575
557.9062 27812.13241
558.1106 27851.96541
558.3150 27677.76518
558.5193 28117.42312
558.7237 28173.12787
558.9280 27926.06092
559.1323 28163.70721
559.3367 27962.76052
559.5410 28239.48205
559.7452 28003.71989
559.9495 28347.65576
560.1537 28313.37277
560.3580 28249.63998
560.5622 28494.20841
560.7664 28701.29901
560.9706 28664.16933
561.1748 28812.07364
561.3789 28765.27755
561.5831 28771.64673
561.7872 28772.75264
561.9913 29015.29358
562.1954 28948.12020
562.3995 29097.17137
562.6036 29115.82836
562.8076 28906.48500
563.0117 29186.40136
563.2157 29096.70033
563.4197 29315.77155
563.6237 29492.83893
563.8277 29196.76409
564.0316 29047.11901
564.2356 29441.04580
564.4395 29423.84286
564.6434 29612.07167
564.8473 29780.72190
565.0512 29779.80031
565.2551 29745.12820
565.4590 29824.32315
565.6628 30036.49271
565.8666 30192.19978
566.0705 29981.83243
566.2743 30016.64790
566.4780 30056.05081
566.6818 29956.92913
566.8856 30490.60930
567.0893 30089.69894
567.2930 30260.54049
567.4967 29971.14203
567.7004 30199.30623
567.9041 30353.10868
568.1078 30389.07101
568.3114 30560.95703
568.5151 30529.29543
568.7187 30199.28575
568.9223 30407.87137
569.1259 30586.37232
569.3295 30938.02904
569.5330 30873.08795
569.7366 30863.23722
569.9401 30970.03879
570.1436 31050.81068
570.3471 31120.31873
570.5506 31125.33626
570.7541 31070.71693
570.9575 31007.33230
571.1609 30720.39140
571.3644 31319.50417
571.5678 31201.70501
571.7712 31611.38068
571.9746 31481.90810
572.1779 31273.42488
572.3813 31123.82076
572.5846 31408.67273
572.7879 31303.63242
572.9912 31965.63832
573.1945 31773.17021
573.3978 31388.74600
573.6010 31711.97691
573.8043 32217.64087
574.0075 31383.91279
574.2107 31561.71744
574.4139 31542.32318
574.6171 31665.42658
574.8203 31523.29755
575.0234 31914.19334
575.2266 31392.22755
575.4297 31551.62095
575.6328 31728.79073
575.8359 32031.78771
576.0390 31391.30596
576.2420 31517.05124
576.4451 31306.54053
576.6481 31620.14599
576.8512 32107.31679
577.0542 31420.98103
577.2571 31833.42145
577.4601 31844.07089
577.6631 31724.65383
577.8660 31573.14510
578.0689 31472.44648
578.2719 31665.73377
578.4748 31492.14794
578.6776 31420.20280
578.8805 31498.33281
579.0834 31017.26495
579.2862 31450.43082
579.4890 31849.43657
579.6918 31647.05630
579.8946 31339.61523
580.0974 31787.89511
580.3002 31426.55150
580.5029 31327.75749
580.7057 31700.50828
580.9084 31248.58302
581.1111 31843.92753
581.3138 31599.19527
581.5164 31347.95046
581.7191 31207.99228
581.9217 31314.63001
582.1244 31364.80524
582.3270 31412.68675
582.5296 31359.50100
582.7322 31621.08805
582.9347 31496.26436
583.1373 31203.17955
583.3398 31443.54964
583.5424 31200.88583
583.7449 31139.61060
583.9474 30939.52405
584.1498 30949.62054
584.3523 31350.10083
584.5548 31006.57455
584.7572 31198.10059
584.9596 31388.02921
585.1620 31940.14110
585.3644 31022.40535
585.5668 31109.34162
585.7691 31451.33192
585.9715 31283.41897
586.1738 31524.75160
586.3761 31504.96823
586.5784 31686.25442
586.7807 31594.93549
586.9830 31602.20578
587.1852 31522.60124
587.3875 31282.31306
587.5897 31798.07351
587.7919 31571.13810
587.9941 31200.78343
588.1963 31326.99974
588.3984 31746.09607
588.6006 31173.07441
588.8027 31765.59273
589.0048 31413.28066
589.2069 31540.93056
589.4090 31578.96134
589.6111 31804.21742
589.8131 31677.03856
590.0152 31893.34502
590.2172 31776.26265
590.4192 32133.03928
590.6212 31824.84046
590.8232 31595.18125
591.0252 31952.92043
591.2271 32104.71587
591.4291 32054.90927
591.6310 31894.55332
591.8329 31866.08655
592.0348 32230.01060
592.2367 32231.60802
592.4385 32558.15663
592.6404 32681.21908
592.8422 32744.48083
593.0440 32859.22852
593.2458 33097.44825
593.4476 33201.71033
593.6494 33204.45461
593.8512 33394.89523
594.0529 33722.24255
594.2546 33611.52936
594.4563 33525.04364
594.6580 33282.44126
594.8597 33230.42286
595.0614 33315.67980
595.2630 33638.43967
595.4647 33585.72495
595.6663 33302.06080
595.8679 33613.10630
596.0695 34098.18817
596.2711 33859.12878
596.4727 33956.14106
596.6742 34247.68989
596.8757 34379.72244
597.0773 34303.04649
597.2788 33952.10656
597.4802 34297.41458
597.6817 34781.34959
597.8832 34500.75739
598.0846 34841.58035
598.2860 34780.87856
598.4875 34461.29303
598.6889 35018.91397
598.8902 35122.66406
599.0916 35139.39597
599.2930 34824.58221
599.4943 35344.04948
599.6956 35329.14027
599.8969 35088.85210
600.0982 34742.97066
600.2995 34906.66480
600.5008 35669.88131
600.7020 35022.19072
600.9032 35532.87220
601.1045 35353.75686
601.3057 35073.22610
601.5068 35723.76337
601.7080 35791.01866
601.9092 35513.76465
602.1103 36057.58228
602.3115 35953.11539
602.5126 36160.88182
602.7137 36080.72432
602.9147 36018.54799
603.1158 36254.16680
603.3169 36488.00387
603.5179 36391.15543
603.7189 36201.41112
603.9199 36397.27885
604.1209 36400.92424
604.3219 36360.55877
604.5229 36410.61113
604.7238 36663.63767
604.9247 36665.27604
605.1257 36818.46411
605.3266 37019.73847
605.5275 36649.15853
605.7283 36786.14716
605.9292 36924.93800
606.1300 36371.86356
606.3309 36597.14012
606.5317 36991.12835
606.7325 37124.14392
606.9332 37117.03747
607.1340 37365.02601
607.3348 37271.78199
607.5355 36753.97357
607.7362 37725.71426
607.9369 36946.48263
608.1376 37250.11448
608.3383 37004.82926
608.5390 37861.69939
608.7396 37434.26783
608.9402 38038.35717
609.1409 38020.78560
609.3415 37633.57615
609.5421 37566.83285
609.7426 37905.83311
609.9432 37430.64293
610.1437 37273.85044
610.3443 38125.29345
610.5448 37859.79478
610.7453 38150.97497
610.9457 37922.89269
611.1462 38090.12982
611.3467 37974.56295
611.5471 38329.08682
611.7475 37815.35385
611.9479 38619.81646
612.1483 38051.01362
612.3487 38636.30261
612.5491 38428.53618
612.7494 39031.29434
612.9497 38346.04400
613.1501 38814.18917
613.3504 38604.66149
613.5506 39231.81096
613.7509 38933.50383
613.9512 38730.79589
614.1514 38930.90291
614.3516 39386.65788
614.5519 39161.09460
614.7521 39320.81568
614.9522 38968.64698
615.1524 38978.39531
615.3526 39431.42648
615.5527 40056.44606
615.7528 39603.88592
615.9529 39662.33495
616.1530 40153.27402
616.3531 40074.30435
616.5532 39987.24519
616.7532 39518.05555
616.9532 39883.67941
617.1533 39678.14527
617.3533 40022.67505
617.5532 39735.48840
617.7532 39962.17806
617.9532 39165.60013
618.1531 40177.27621
618.3530 39587.78889
618.5530 39890.21243
618.7528 40028.42985
618.9527 40084.38035
619.1526 39734.07530
619.3524 39768.44021
619.5523 40049.95400
619.7521 40108.79214
619.9519 40197.71494
620.1517 40164.47641
620.3515 40517.17759
620.5512 40825.04873
620.7510 40554.36870
620.9507 40257.65899
621.1504 40301.93607
621.3501 40380.92623
621.5498 40653.61327
621.7495 40721.74919
621.9492 40345.53733
622.1488 40190.19890
622.3484 40210.02323
622.5480 40169.18674
622.7476 40929.96617
622.9472 40217.39592
623.1468 40429.07397
623.3463 41538.47912
623.5459 41223.78825
623.7454 40972.78920
623.9449 40994.14951
624.1444 40969.47149
624.3439 41357.97116
624.5433 41149.50842
624.7428 40921.11894
624.9422 41014.07625
625.1416 41141.13223
625.3410 41120.73446
625.5404 40995.41925
625.7398 41036.23527
625.9391 41262.35150
626.1385 40878.31640
626.3378 40902.99442
626.5371 41690.39745
626.7364 40998.65504
626.9357 41470.09745
627.1350 41370.25897
627.3342 41002.36186
627.5335 40763.58919
627.7327 40966.99344
627.9319 41035.60040
628.1311 41991.59221
628.3303 41262.26958
628.5294 41506.96088
628.7286 41610.42427
628.9277 41995.64719
629.1268 41664.01961
629.3259 42301.67516
629.5250 42219.16250
629.7241 42157.78487
629.9231 41387.95342
630.1222 42237.92189
630.3212 42112.97532
630.5202 41707.82566
630.7192 42258.34014
630.9182 41619.78348
631.1171 41862.93881
631.3161 41694.30907
631.5150 41537.08650
631.7140 41854.76742
631.9129 41984.46528
632.1118 42444.19330
632.3106 42259.17981
632.5095 42071.19675
632.7083 41998.51434
632.9072 42066.71170
633.1060 42177.62969
633.3048 42208.34922
633.5036 41701.08784
633.7023 42031.77336
633.9011 42516.91667
634.0998 42381.21826
634.2986 42520.17294
634.4973 42221.00567
634.6960 42420.43687
634.8947 42245.80657
635.0933 42554.35354
635.2920 42193.31713
635.4906 41817.12575
635.6892 42566.21128
635.8878 42653.27043
636.0864 42681.18425
636.2850 42396.02508
636.4836 42359.30500
636.6821 42421.80900
636.8806 42632.85218
637.0792 42567.97253
637.2777 42539.97680
637.4761 42574.52603
637.6746 42299.70911
637.8731 42706.49714
638.0715 42227.92780
638.2699 42900.50122
638.4683 42560.29265
638.6667 41820.77114
638.8651 42696.89217
639.0635 42885.94016
639.2618 42951.61852
639.4602 42799.78212
639.6585 42734.55431
639.8568 42885.94016
640.0551 42921.49290
640.2534 42799.80260
640.4516 42568.52549
640.6499 42780.67457
640.8481 43543.15381
641.0463 43282.20164
641.2445 43532.64773
641.4427 43316.54607
641.6409 43104.27411
641.8390 43355.76467
642.0372 43699.74150
642.2353 43521.01527
642.4334 42929.95101
642.6315 43191.47662
642.8296 43185.51703
643.0277 43000.99505
643.2257 43707.60570
643.4237 43747.80733
643.6218 43626.15799
643.8198 43344.43941
644.0178 43482.14483
644.2157 43433.34173
644.4137 43301.06343
644.6116 44056.90725
644.8096 44357.11899
