# Averages = 100
# wavelength [µm]	intensity
446.8250 14.33578
447.0374 36746.70328
447.2498 1231.17737
447.4621 1214.50691
447.6745 1229.25228
447.8868 1240.78235
448.0992 1241.00762
448.3115 1231.32073
448.5238 1246.68050
448.7360 1233.02055
448.9483 1244.46869
449.1606 1239.77884
449.3728 1267.07827
449.5850 1235.70338
449.7972 1244.91924
450.0094 1237.13696
450.2216 1256.89986
450.4337 1246.47570
450.6459 1748.84243
450.8580 2130.07182
451.0701 2169.82289
451.2822 2188.95092
451.4943 2173.52971
451.7064 2151.71885
451.9184 2167.09909
452.1305 2261.77669
452.3425 2363.68361
452.5545 2262.90307
452.7665 2265.85215
452.9785 2363.54025
453.1905 2399.76882
453.4024 2353.91480
453.6143 2479.33241
453.8263 2460.73685
454.0382 2673.62320
454.2501 2458.07449
454.4619 2422.25552
454.6738 2564.32311
454.8856 2710.11801
455.0975 2494.28258
455.3093 2486.95085
455.5211 2563.68824
455.7329 2526.68145
455.9446 2577.06148
456.1564 2596.35334
456.3681 2704.28130
456.5798 2801.45741
456.7916 2720.48073
457.0033 2697.50252
457.2149 2678.98888
457.4266 2716.85582
457.6382 2760.00652
457.8499 2729.57371
458.0615 2854.09021
458.2731 2746.18274
458.4847 2872.91104
458.6963 2966.13458
458.9078 2995.15430
459.1194 3164.91043
459.3309 3182.54344
459.5424 3018.74690
459.7539 2920.28056
459.9654 2934.37058
460.1769 2979.44638
460.3883 2970.94731
460.5998 2828.83875
460.8112 2806.82309
461.0226 2878.01048
461.2340 2961.46521
461.4454 2933.87907
461.6567 2903.07762
461.8681 2918.82650
462.0794 2865.29260
462.2907 3006.45908
462.5020 3263.97067
462.7133 3358.99643
462.9246 3120.18279
463.1359 2985.24213
463.3471 2841.80240
463.5583 2907.07116
463.7696 3326.29036
463.9808 3165.25858
464.1919 3077.29832
464.4031 3079.71493
464.6143 3092.57617
464.8254 3011.37421
465.0365 2975.49380
465.2476 3255.45113
465.4587 3419.22719
465.6698 2986.34803
465.8809 3061.11937
466.0919 3054.07436
466.3030 3108.52985
466.5140 3138.36875
466.7250 3066.75128
466.9360 3200.19693
467.1469 3130.05400
467.3579 2918.33499
467.5688 2913.68610
467.7798 3152.11062
467.9907 3285.10571
468.2016 3163.21061
468.4125 3117.95050
468.6233 2965.70451
468.8342 2988.08880
469.0450 3175.08883
469.2559 3289.83652
469.4667 3233.23066
469.6775 2983.56279
469.8882 3143.03812
470.0990 3105.72413
470.3098 3405.71059
470.5205 3222.27403
470.7312 3301.16179
470.9419 3526.31547
471.1526 3410.66668
471.3633 3120.71526
471.5739 3154.24051
471.7846 3151.04568
471.9952 3065.19483
472.2058 3200.23789
472.4164 3170.37850
472.6270 3138.71691
472.8376 3277.83542
473.0481 3468.76755
473.2587 3552.42707
473.4692 3470.30353
473.6797 3337.61563
473.8902 3092.69905
474.1007 3072.77231
474.3111 3093.00624
474.5216 3022.92475
474.7320 3144.61506
474.9424 3310.66436
475.1528 3369.70730
475.3632 3230.97790
475.5736 3195.01557
475.7840 3207.67201
475.9943 3242.81516
476.2046 3273.51421
476.4149 3337.92283
476.6252 3362.29365
476.8355 3470.36497
477.0458 3555.17135
477.2561 3565.59551
477.4663 3368.99051
477.6765 3391.66153
477.8867 3415.41796
478.0969 3398.13311
478.3071 3385.10803
478.5173 3484.02492
478.7274 3460.18656
478.9375 3527.38042
479.1477 3484.90554
479.3578 3621.11595
479.5679 3586.64863
479.7779 3622.97960
479.9880 3619.35469
480.1980 3668.09635
480.4081 3671.22974
480.6181 3532.76657
480.8281 3662.52587
481.0381 3584.78498
481.2480 3584.23203
481.4580 3672.06941
481.6679 3629.38974
481.8778 3587.81597
482.0877 3612.10488
482.2976 3498.48358
482.5075 3605.71522
482.7174 3676.65686
482.9272 3751.26436
483.1371 3607.66079
483.3469 3650.31998
483.5567 3791.11783
483.7665 3661.33805
483.9762 3727.46696
484.1860 3877.84931
484.3957 3875.82182
484.6055 3712.14816
484.8152 3793.32964
485.0249 3915.85961
485.2346 3901.27807
485.4442 3899.49634
485.6539 3944.65405
485.8635 3917.72326
486.0732 3798.90011
486.2828 3834.35045
486.4924 3819.70748
486.7019 3954.93485
486.9115 3900.56128
487.1210 3918.17381
487.3306 4034.58036
487.5401 4008.53019
487.7496 4089.05632
487.9591 4100.09488
488.1686 4061.90026
488.3780 4000.85031
488.5875 4101.63085
488.7969 4208.14571
489.0063 4188.69000
489.2157 4244.59955
489.4251 4164.50349
489.6345 4143.79853
489.8438 4248.98220
490.0531 4069.25247
490.2625 4144.98635
490.4718 4242.30583
490.6811 4296.22884
490.8903 4317.77347
491.0996 4347.65334
491.3089 4373.58062
491.5181 4411.30421
491.7273 4415.23631
491.9365 4399.11879
492.1457 4486.42370
492.3549 4511.61372
492.5640 4421.60549
492.7732 4484.70341
492.9823 4541.12495
493.1914 4662.09846
493.4005 4640.43095
493.6096 4594.92509
493.8187 4562.97677
494.0277 4658.35068
494.2368 4659.55898
494.4458 4696.38146
494.6548 4764.86553
494.8638 4824.62526
495.0728 4793.10702
495.2817 4794.95019
495.4907 4842.38115
495.6996 4862.84036
495.9085 4875.82448
496.1174 4962.74027
496.3263 4951.18973
496.5352 4962.31020
496.7440 5064.77008
496.9529 5097.66045
497.1617 5035.56604
497.3705 5074.94848
497.5793 5195.67624
497.7881 5099.99514
497.9969 5190.76111
498.2056 5249.59926
498.4144 5284.43520
498.6231 5347.92224
498.8318 5344.68645
499.0405 5373.33753
499.2492 5355.72500
499.4578 5415.48473
499.6665 5407.88676
499.8751 5553.39494
500.0837 5540.49274
500.2923 5574.34566
500.5009 5575.12389
500.7095 5693.37360
500.9180 5666.27898
501.1266 5740.31305
501.3351 5752.12983
501.5436 5841.31887
501.7521 5828.39618
501.9606 5905.35885
502.1691 5944.96657
502.3775 5908.02121
502.5860 5992.68424
502.7944 5994.15878
503.0028 6096.88489
503.2112 6095.81994
503.4196 6147.12156
503.6279 6208.47870
503.8363 6146.22045
504.0446 6319.25333
504.2529 6274.01370
504.4612 6353.43393
504.6695 6439.83773
504.8778 6439.79677
505.0860 6480.28512
505.2943 6487.71924
505.5025 6579.40680
505.7107 6601.95494
505.9189 6654.19862
506.1271 6725.91849
506.3353 6709.51426
506.5434 6697.92276
506.7516 6819.67450
506.9597 6859.87613
507.1678 6933.66444
507.3759 6908.08531
507.5840 6970.56884
507.7920 7037.53741
508.0001 7045.56545
508.2081 7178.33527
508.4161 7155.99193
508.6241 7341.84509
508.8321 7297.77280
509.0401 7264.82099
509.2480 7403.22271
509.4560 7398.43047
509.6639 7505.45731
509.8718 7499.08813
510.0797 7626.12363
510.2876 7655.65534
510.4955 7771.67277
510.7033 7812.83694
510.9112 7830.30612
511.1190 7939.23757
511.3268 7902.94757
511.5346 7987.89731
511.7424 8020.37810
511.9501 8137.74719
512.1579 8164.96469
512.3656 8199.47296
512.5733 8181.40988
512.7810 8321.04039
512.9887 8393.16985
513.1964 8425.26152
513.4040 8476.50170
513.6117 8557.41694
513.8193 8661.84287
514.0269 8667.63862
514.2345 8778.61805
514.4421 8729.38488
514.6497 8741.42693
514.8572 8940.20278
515.0647 8981.18264
515.2723 9045.36598
515.4798 9115.95946
515.6873 9180.77767
515.8947 9260.85325
516.1022 9245.67780
516.3097 9320.71537
516.5171 9445.84627
516.7245 9520.69952
516.9319 9593.19762
517.1393 9654.55476
517.3467 9632.31382
517.5540 9636.81935
517.7614 9910.79661
517.9687 9919.70527
518.1760 9941.65950
518.3833 10124.56359
518.5906 10125.19846
518.7978 10301.26233
519.0051 10261.44982
519.2123 10437.71849
519.4196 10251.68101
519.6268 10460.45094
519.8340 10510.27802
520.0411 10551.97467
520.2483 10791.40269
520.4554 10755.29700
520.6626 11026.03847
520.8697 10976.35475
521.0768 11221.72189
521.2839 11135.97344
521.4909 11162.71991
521.6980 11341.65094
521.9050 11559.92345
522.1121 11468.93220
522.3191 11699.82019
522.5261 11706.18937
522.7331 11750.20022
522.9400 11946.35467
523.1470 11969.25096
523.3539 12059.21823
523.5608 12101.34495
523.7677 12124.48699
523.9746 12238.16974
524.1815 12513.92873
524.3884 12442.96661
524.5952 12448.92620
524.8020 12758.21044
525.0089 12672.72823
525.2157 12790.71171
525.4225 12906.66770
525.6292 12934.23336
525.8360 13041.48548
526.0427 13148.57377
526.2494 13312.08359
526.4562 13269.73160
526.6629 13410.83664
526.8695 13433.95821
527.0762 13669.80229
527.2829 13762.22712
527.4895 13857.96966
527.6961 13977.38672
527.9027 14122.19859
528.1093 14190.31403
528.3159 14223.32729
528.5224 14192.85351
528.7290 14577.05245
528.9355 14393.14485
529.1420 14820.08490
529.3485 14717.62502
529.5550 14905.05512
529.7615 14883.16234
529.9680 15084.12951
530.1744 15094.16456
530.3808 15291.93690
530.5872 15241.02440
530.7936 15385.09900
531.0000 15460.97624
531.2064 15652.95283
531.4127 15762.41676
531.6191 15872.84324
531.8254 15971.26861
532.0317 16175.14390
532.2380 16138.42382
532.4443 16259.11062
532.6505 16097.79212
532.8568 16356.61441
533.0630 16706.42796
533.2692 16645.39849
533.4754 16808.06865
533.6816 16977.55854
533.8878 16904.30270
534.0939 17242.72953
534.3001 17284.20090
534.5062 17405.99360
534.7123 17322.47744
534.9184 17434.66516
535.1245 17567.55786
535.3306 17604.44177
535.5366 17986.98186
535.7426 17965.35531
535.9487 18064.78419
536.1547 18023.94769
536.3607 18356.12822
536.5666 18244.90304
536.7726 18374.99002
536.9785 18599.63171
537.1845 18758.61552
537.3904 18671.26965
537.5963 18804.12139
537.8022 18977.13379
538.0080 19138.57516
538.2139 19209.61920
538.4197 19357.52350
538.6256 19303.04753
538.8314 19368.41870
539.0372 19535.94254
539.2430 19934.86637
539.4487 19693.94333
539.6545 20109.00516
539.8602 19979.43017
540.0659 20209.31467
540.2716 20615.93886
540.4773 20702.32218
540.6830 20796.28299
540.8887 20927.55779
541.0943 20669.63660
541.2999 20807.64922
541.5056 20849.77593
541.7112 21143.78233
541.9167 20986.10921
542.1223 21059.09882
542.3279 21471.10917
542.5334 21579.81535
542.7389 21775.06869
542.9444 21864.48301
543.1499 22005.69045
543.3554 21905.79054
543.5609 22288.16678
543.7663 22311.69795
543.9718 22172.78422
544.1772 22362.50805
544.3826 22395.21411
544.5880 23051.42426
544.7934 22843.20728
544.9987 22920.35426
545.2041 23308.95633
545.4094 23272.58440
545.6147 23331.05391
545.8200 23646.40014
546.0253 23615.70109
546.2306 23892.46358
546.4358 23670.42281
546.6411 24022.63248
546.8463 23867.92892
547.0515 24181.69821
547.2567 24336.85232
547.4619 24422.84653
547.6670 24487.56234
547.8722 24654.90187
548.0773 24961.46231
548.2824 24989.13037
548.4876 25152.86547
548.6926 25216.12723
548.8977 25338.39096
549.1028 25451.86891
549.3078 25657.66929
549.5129 25643.72262
549.7179 25799.06105
549.9229 26024.41953
550.1279 25842.29367
550.3328 26231.20294
550.5378 25920.71040
550.7427 26267.96398
550.9476 26495.37043
551.1526 25907.50100
551.3575 26516.36211
551.5623 26633.56736
551.7672 26582.90061
551.9720 26591.25632
552.1769 26852.39282
552.3817 27079.53303
552.5865 26902.44517
552.7913 27135.31970
552.9961 27013.77276
553.2008 27216.91078
553.4056 27519.43672
553.6103 27434.26170
553.8150 27689.72532
554.0197 27793.70070
554.2244 27645.53016
554.4291 27738.18026
554.6337 28171.20277
554.8384 27927.69929
555.0430 28196.22895
555.2476 27945.12750
555.4522 27937.03803
555.6568 28317.50966
555.8613 28509.19954
556.0659 28627.49021
556.2704 28355.17181
556.4750 28713.97593
556.6795 28950.20913
556.8839 28630.45977
557.0884 29130.22558
557.2929 28990.92275
557.4973 28791.63491
557.7018 28938.49475
557.9062 29148.20675
558.1106 29178.14805
558.3150 29014.12623
558.5193 29415.01612
558.7237 29502.89445
558.9280 29278.51900
559.1323 29467.60795
559.3367 29307.08816
559.5410 29600.58256
559.7452 29358.30786
559.9495 29726.90128
560.1537 29638.32663
560.3580 29602.85581
560.5622 29807.98036
560.7664 30027.93220
560.9706 30102.60114
561.1748 30219.13057
561.3789 30226.85141
561.5831 30247.67925
561.7872 30127.93452
561.9913 30406.68354
562.1954 30312.00595
562.3995 30484.79307
562.6036 30491.61281
562.8076 30277.53863
563.0117 30545.84302
563.2157 30480.30802
563.4197 30609.55533
563.6237 30887.44421
563.8277 30582.95221
564.0316 30373.40405
564.2356 30811.34169
564.4395 30809.58044
564.6434 31011.69447
564.8473 31228.57436
565.0512 31196.99468
565.2551 31161.50339
565.4590 31209.52825
565.6628 31468.00239
565.8666 31656.92751
566.0705 31372.95616
566.2743 31397.79802
566.4780 31477.34113
566.6818 31367.87720
566.8856 31967.27669
567.0893 31502.96122
567.2930 31731.30973
567.4967 31407.52587
567.7004 31627.41628
567.9041 31769.25859
568.1078 31756.13111
568.3114 31999.94179
568.5151 31941.98428
568.7187 31633.37587
568.9223 31858.22235
569.1259 32025.41852
569.3295 32366.73300
569.5330 32319.30204
569.7366 32312.03175
569.9401 32414.61450
570.1436 32479.53511
570.3471 32594.77432
570.5506 32493.19507
570.7541 32420.49217
570.9575 32375.64166
571.1609 32084.31810
571.3644 32714.56001
571.5678 32662.64400
571.7712 33137.56795
571.9746 32922.44932
572.1779 32713.35171
572.3813 32575.23669
572.5846 32828.63187
572.7879 32681.66963
572.9912 33304.37501
573.1945 33205.45812
573.3978 32790.39629
573.6010 33102.05618
573.8043 33678.84609
574.0075 32883.88606
574.2107 33017.02451
574.4139 32957.51054
574.6171 33085.59051
574.8203 32929.47385
575.0234 33341.68900
575.2266 32819.72320
575.4297 32931.27606
575.6328 33161.85686
575.8359 33556.37756
576.0390 32886.46650
576.2420 33013.89112
576.4451 32717.79580
576.6481 33064.66027
576.8512 33549.70118
577.0542 32866.78552
577.2571 33265.29976
577.4601 33339.96870
577.6631 33210.25036
577.8660 33019.27728
578.0689 32955.25778
578.2719 33108.46632
578.4748 32973.87381
578.6776 32892.83569
578.8805 33044.61065
579.0834 32562.80552
579.2862 33093.86430
579.4890 33414.74004
579.6918 33212.54409
579.8946 32912.31187
580.0974 33320.32868
580.3002 32970.61754
580.5029 32858.12262
580.7057 33287.29495
580.9084 32804.44536
581.1111 33350.39287
581.3138 33132.01796
581.5164 32865.61818
581.7191 32722.52661
581.9217 32876.96393
582.1244 32872.97039
582.3270 32911.16501
582.5296 32879.81061
582.7322 33117.14970
582.9347 32986.03875
583.1373 32718.28731
583.3398 32943.68675
583.5424 32657.56504
583.7449 32620.45584
583.9474 32472.92017
584.1498 32444.02334
584.3523 32876.20618
584.5548 32494.79248
584.7572 32731.12807
584.9596 32911.59508
585.1620 33561.82516
585.3644 32636.26616
585.5668 32664.34381
585.7691 32897.81225
585.9715 32751.54632
586.1738 33091.75489
586.3761 33047.35493
586.5784 33212.01162
586.7807 33185.87954
586.9830 33185.81810
587.1852 33131.34213
587.3875 32785.03061
587.5897 33436.20276
587.7919 33152.68196
587.9941 32847.14550
588.1963 32981.28746
588.3984 33315.41356
588.6006 32730.28841
588.8027 33407.06016
589.0048 33050.42688
589.2069 33143.91666
589.4090 33147.50060
589.6111 33363.37699
589.8131 33293.00878
590.0152 33531.49474
590.2172 33408.82141
590.4192 33685.03096
590.6212 33371.17975
590.8232 33177.95390
591.0252 33585.84783
591.2271 33699.03907
591.4291 33660.20958
591.6310 33522.77040
591.8329 33463.07211
592.0348 33807.21277
592.2367 33854.23414
592.4385 34143.12061
592.6404 34295.34613
592.8422 34387.87335
593.0440 34518.16513
593.2458 34786.36711
593.4476 34975.00552
593.6494 34951.92491
593.8512 35118.97772
594.0529 35394.45000
594.2546 35299.40377
594.4563 35252.50528
594.6580 35005.17210
594.8597 35005.02874
595.0614 35054.15951
595.2630 35315.17313
595.4647 35253.05823
595.6663 34968.32914
595.8679 35388.55185
596.0695 35840.64095
596.2711 35559.57772
596.4727 35687.24809
596.6742 35941.27813
596.8757 36125.10381
597.0773 35989.34396
597.2788 35650.03650
597.4802 36002.61480
597.6817 36525.23594
597.8832 36298.60772
598.0846 36592.16356
598.2860 36444.36165
598.4875 36186.01040
598.6889 36753.40014
598.8902 36853.30005
599.0916 36889.69246
599.2930 36518.43668
599.4943 37033.48035
599.6956 37038.00636
599.8969 36894.54615
600.0982 36474.87639
600.2995 36602.93588
600.5008 37425.87116
600.7020 36797.96394
600.9032 37335.02326
601.1045 37151.09519
601.3057 36814.47057
601.5068 37655.55085
601.7080 37626.26490
601.9092 37297.50448
602.1103 37858.34072
602.3115 37696.89934
602.5126 37820.39186
602.7137 37651.06580
602.9147 37719.44748
603.1158 37969.85262
603.3169 38304.36783
603.5179 38150.29914
603.7189 37989.96367
603.9199 38225.31624
604.1209 38125.92832
604.3219 38031.12784
604.5229 38088.59385
604.7238 38372.68807
604.9247 38327.91947
605.1257 38586.04545
605.3266 38880.58432
605.5275 38414.54855
605.7283 38606.27939
605.9292 38819.14526
606.1300 38217.92307
606.3309 38404.10391
606.5317 38840.91517
606.7325 38993.69363
606.9332 38884.41402
607.1340 39121.34353
607.3348 39011.69528
607.5355 38483.68798
607.7362 39555.30810
607.9369 38738.66009
608.1376 39091.68894
608.3383 38854.39080
608.5390 39730.92142
608.7396 39264.33270
608.9402 39918.80208
609.1409 39920.29710
609.3415 39578.71639
609.5421 39454.44564
609.7426 39804.30015
609.9432 39221.12056
610.1437 39173.62817
610.3443 40047.43500
610.5448 39730.81903
610.7453 40121.05947
610.9457 39935.80022
611.1462 40127.94065
611.3467 39893.73494
611.5471 40307.95710
611.7475 39751.27823
611.9479 40511.72999
612.1483 39996.44057
612.3487 40605.73176
612.5491 40442.07857
612.7494 41123.17154
612.9497 40433.16991
613.1501 40771.61722
613.3504 40588.09875
613.5506 41340.95254
613.7509 40949.62667
613.9512 40799.18288
614.1514 41049.19891
614.3516 41444.57976
614.5519 41258.76755
614.7521 41453.87753
614.9522 41050.69393
615.1524 41029.04690
615.3526 41568.70714
615.5527 42117.29653
615.7528 41648.18881
615.9529 41652.36667
616.1530 42128.39652
616.3531 42100.81038
616.5532 42013.30068
616.7532 41681.87790
616.9532 42043.54918
617.1533 41716.20185
617.3533 42196.55292
617.5532 41804.28499
617.7532 42085.94213
617.9532 41265.52585
618.1531 42309.08880
618.3530 41780.32375
618.5530 42026.14144
618.7528 42148.32326
618.9527 42202.04148
619.1526 41752.26658
619.3524 41899.74081
619.5523 42226.41231
619.7521 42328.95410
619.9519 42310.70670
620.1517 42336.61350
620.3515 42720.83292
620.5512 42998.68084
620.7510 42731.87147
620.9507 42403.43873
621.1504 42485.54179
621.3501 42642.35476
621.5498 42840.84389
621.7495 42916.78257
621.9492 42557.46645
622.1488 42288.42480
622.3484 42293.09417
622.5480 42218.09755
622.7476 43011.52161
622.9472 42176.19611
623.1468 42506.14436
623.3463 43652.18767
623.5459 43323.18149
623.7454 43015.59706
623.9449 42932.40857
624.1444 42916.22962
624.3439 43391.76796
624.5433 43180.49951
624.7428 42932.55193
624.9422 43056.02397
625.1416 43156.00580
625.3410 43110.58185
625.5404 42995.81369
625.7398 43075.43871
625.9391 43275.38190
626.1385 42936.07444
626.3378 43025.16108
626.5371 43698.28745
626.7364 43019.52916
626.9357 43424.43307
627.1350 43457.05721
627.3342 43102.51286
627.5335 42981.47790
627.7327 43186.21334
627.9319 43184.71832
628.1311 44220.21228
628.3303 43400.98382
628.5294 43652.43343
628.7286 43733.53299
628.9277 44062.19101
629.1268 43710.88245
629.3259 44343.62288
629.5250 44330.65924
629.7241 44308.97125
629.9231 43482.47250
630.1222 44376.26750
630.3212 44210.11580
630.5202 43794.95157
630.7192 44416.40769
630.9182 43760.23850
631.1171 43964.11379
631.3161 43732.46805
631.5150 43711.90644
631.7140 44074.58123
631.9129 44167.72284
632.1118 44636.89200
632.3106 44480.50911
632.5095 44225.06597
632.7083 44113.36975
632.9072 44258.79601
633.1060 44436.72354
633.3048 44406.29072
633.5036 43852.60189
633.7023 44155.70127
633.9011 44628.78205
634.0998 44448.29456
634.2986 44661.57003
634.4973 44361.76788
634.6960 44535.47659
634.8947 44266.80357
635.0933 44657.06450
635.2920 44234.58902
635.4906 43832.90043
635.6892 44722.61998
635.8878 44657.90416
636.0864 44627.51231
636.2850 44393.69572
636.4836 44410.40714
636.6821 44492.03918
636.8806 44560.52325
637.0792 44536.48010
637.2777 44518.43749
637.4761 44568.20313
637.6746 44256.25653
637.8731 44685.81798
638.0715 44182.63206
638.2699 44923.30043
638.4683 44586.81917
638.6667 43847.46149
638.8651 44768.39208
639.0635 44962.49856
639.2618 44959.09893
639.4602 44853.58758
639.6585 44749.07973
639.8568 44951.70576
640.0551 45052.85494
640.2534 44938.27109
640.4516 44782.35922
640.6499 44866.83794
640.8481 45628.53895
641.0463 45384.11388
641.2445 45746.97299
641.4427 45488.64221
641.6409 45223.10258
641.8390 45517.86672
642.0372 45826.06554
642.2353 45674.27010
642.4334 45073.55990
642.6315 45407.82936
642.8296 45320.31966
643.0277 45134.42553
643.2257 45829.48565
643.4237 45830.28435
643.6218 45799.42147
643.8198 45476.92783
644.0178 45547.93090
644.2157 45500.39755
644.4137 45392.36720
644.6116 46162.56728
644.8096 46415.96246
