# Averages = 100
# wavelength [µm]	intensity
446.8250 14.33578
447.0374 36746.70328
447.2498 1238.87774
447.4621 1226.15985
447.6745 1225.70930
447.8868 1236.44065
448.0992 1246.53714
448.3115 1244.87828
448.5238 1251.49322
448.7360 1245.20596
448.9483 1250.77643
449.1606 1238.89822
449.3728 1269.86350
449.5850 1236.97313
449.7972 1248.46223
450.0094 1240.82331
450.2216 1250.46924
450.4337 1249.38382
450.6459 1741.08063
450.8580 2107.91280
451.0701 2149.91663
451.2822 2176.06920
451.4943 2163.84282
451.7064 2144.57144
451.9184 2130.13326
452.1305 2238.85992
452.3425 2338.32976
452.5545 2242.81250
452.7665 2247.09275
452.9785 2334.50006
453.1905 2379.53489
453.4024 2337.69489
453.6143 2451.76675
453.8263 2438.94646
454.0382 2632.80719
454.2501 2433.68318
454.4619 2399.62546
454.6738 2538.10911
454.8856 2667.66361
455.0975 2464.75087
455.3093 2454.57247
455.5211 2526.78384
455.7329 2504.52242
455.9446 2549.74157
456.1564 2575.27974
456.3681 2663.71103
456.5798 2774.46518
456.7916 2701.78277
457.0033 2655.17100
457.2149 2636.65737
457.4266 2679.27560
457.6382 2720.07113
457.8499 2699.44809
458.0615 2810.65279
458.2731 2716.87630
458.4847 2833.77436
458.6963 2930.82760
458.9078 2958.90525
459.1194 3124.50400
459.3309 3146.37631
459.5424 2986.26611
459.7539 2873.48447
459.9654 2891.73187
460.1769 2941.49752
460.3883 2924.60177
460.5998 2794.14616
460.8112 2788.12514
461.0226 2832.60702
461.2340 2927.26413
461.4454 2894.61951
461.6567 2867.17673
461.8681 2872.31713
462.0794 2827.42566
462.2907 2968.67406
462.5020 3220.06222
462.7133 3318.05753
462.9246 3082.68448
463.1359 2938.83516
463.3471 2797.30004
463.5583 2879.56694
463.7696 3282.15664
463.9808 3107.03483
464.1919 3046.04632
464.4031 3026.16054
464.6143 3044.85850
464.8254 2975.94435
465.0365 2933.18276
465.2476 3208.71648
465.4587 3377.51006
465.6698 2952.22887
465.8809 3026.63158
466.0919 2993.37256
466.3030 3061.69280
466.5140 3090.54868
466.7250 3017.47716
466.9360 3157.18958
467.1469 3082.72544
467.3579 2881.34867
467.5688 2864.20717
467.7798 3112.66674
467.9907 3229.44192
468.2016 3118.93353
468.4125 3073.46862
468.6233 2922.59476
468.8342 2950.65194
469.0450 3139.96617
469.2559 3246.54246
469.4667 3191.53402
469.6775 2935.31265
469.8882 3105.43741
470.0990 3074.79980
470.3098 3366.92206
470.5205 3175.90802
470.7312 3259.17843
470.9419 3471.83950
471.1526 3358.56635
471.3633 3081.08707
471.5739 3109.86103
471.7846 3102.46786
471.9952 3024.01018
472.2058 3141.50214
472.4164 3121.51397
472.6270 3096.44683
472.8376 3228.43842
473.0481 3428.52496
473.2587 3495.51402
473.4692 3403.15063
473.6797 3300.77267
473.8902 3047.15222
474.1007 3023.68250
474.3111 3050.75665
474.5216 2979.24158
474.7320 3100.03078
474.9424 3276.79096
475.1528 3340.35991
475.3632 3190.10044
475.5736 3146.08959
475.7840 3161.51080
475.9943 3196.46963
476.2046 3214.53271
476.4149 3285.72010
476.6252 3301.44850
476.8355 3424.34711
477.0458 3500.22435
477.2561 3493.48653
477.4663 3319.59351
477.6765 3347.81452
477.8867 3353.71267
478.0969 3350.55879
478.3071 3337.79995
478.5173 3438.15042
478.7274 3425.26869
478.9375 3461.90685
479.1477 3441.85724
479.3578 3573.39827
479.5679 3540.32358
479.7779 3548.72025
479.9880 3563.01507
480.1980 3600.82057
480.4081 3615.42259
480.6181 3477.02086
480.8281 3599.38700
481.0381 3538.35753
481.2480 3532.31602
481.4580 3626.72738
481.6679 3571.26839
481.8778 3529.12119
482.0877 3551.46453
482.2976 3441.38621
482.5075 3542.41251
482.7174 3616.69233
482.9272 3690.19393
483.1371 3562.01157
483.3469 3612.90359
483.5567 3733.44703
483.7665 3602.31559
483.9762 3665.96646
484.1860 3815.46818
484.3957 3801.72631
484.6055 3665.20871
484.8152 3742.76529
485.0249 3853.90855
485.2346 3837.05377
485.4442 3839.75709
485.6539 3861.81371
485.8635 3856.61187
486.0732 3729.33061
486.2828 3755.87229
486.4924 3755.01214
486.7019 3868.38769
486.9115 3836.62370
487.1210 3831.09418
487.3306 3973.44849
487.5401 3930.37971
487.7496 3997.75788
487.9591 4034.78515
488.1686 3996.01710
488.3780 3922.59742
488.5875 4029.19420
488.7969 4139.84595
489.0063 4107.59044
489.2157 4157.47896
489.4251 4084.65319
489.6345 4056.90322
489.8438 4177.07802
490.0531 3994.78832
490.2625 4069.72350
490.4718 4158.38007
490.6811 4231.34919
490.8903 4256.17058
491.0996 4283.61336
491.3089 4292.13291
491.5181 4338.82659
491.7273 4355.45610
491.9365 4323.87642
492.1457 4405.69277
492.3549 4422.11748
492.5640 4338.49892
492.7732 4398.36105
492.9823 4462.68774
493.1914 4576.04281
493.4005 4548.55907
493.6096 4516.30357
493.8187 4486.87425
494.0277 4582.55535
494.2368 4586.87657
494.4458 4619.43927
494.6548 4681.41081
494.8638 4725.91317
495.0728 4708.75119
495.2817 4716.59491
495.4907 4754.44137
495.6996 4793.86477
495.9085 4803.87934
496.1174 4844.14240
496.3263 4854.15697
496.5352 4870.04921
496.7440 4982.33933
496.9529 5004.88747
497.1617 4937.05875
497.3705 4989.89634
497.5793 5107.59310
497.7881 4994.77050
497.9969 5080.58040
498.2056 5167.18899
498.4144 5173.64010
498.6231 5237.08617
498.8318 5258.69224
499.0405 5258.63080
499.2492 5239.58469
499.4578 5304.21858
499.6665 5301.20807
499.8751 5434.55131
500.0837 5431.04929
500.2923 5461.15443
500.5009 5477.49722
500.7095 5594.98919
500.9180 5556.61025
501.1266 5621.38750
501.3351 5645.86073
501.5436 5736.46287
501.7521 5709.57304
501.9606 5786.02371
502.1691 5831.24286
502.3775 5780.04364
502.5860 5854.89690
502.7944 5888.68838
503.0028 5964.81138
503.2112 5968.41581
503.4196 6015.49861
503.6279 6084.63803
503.8363 6014.02407
504.0446 6190.43610
504.2529 6170.22265
504.4612 6201.35177
504.6695 6308.00999
504.8778 6322.69392
505.0860 6308.93157
505.2943 6339.03671
505.5025 6429.90509
505.7107 6450.91725
505.9189 6521.20353
506.1271 6570.53910
506.3353 6552.63985
506.5434 6558.94760
506.7516 6681.23181
506.9597 6713.09820
507.1678 6790.57286
507.3759 6746.00906
507.5840 6815.45568
507.7920 6875.54309
508.0001 6898.50082
508.2081 7025.84351
508.4161 6982.93857
508.6241 7169.32420
508.8321 7133.15708
509.0401 7105.93957
509.2480 7234.90016
509.4560 7251.01768
509.6639 7324.33496
509.8718 7326.95636
510.0797 7475.57745
510.2876 7496.07762
510.4955 7569.47682
510.7033 7633.55776
510.9112 7652.70627
511.1190 7759.34400
511.3268 7713.42854
511.5346 7800.13954
511.7424 7839.54246
511.9501 7963.81320
512.1579 7985.68551
512.3656 8019.88658
512.5733 8013.59932
512.7810 8141.39257
512.9887 8230.68401
513.1964 8261.71073
513.4040 8304.36992
513.6117 8368.55326
513.8193 8450.65633
514.0269 8489.95685
514.2345 8606.24052
514.4421 8550.39241
514.6497 8555.84001
514.8572 8742.86051
515.0647 8780.31786
515.2723 8847.92131
515.4798 8903.25742
515.6873 8992.77414
515.8947 9066.37814
516.1022 9036.21156
516.3097 9125.56443
516.5171 9228.35198
516.7245 9317.43862
516.9319 9393.04963
517.1393 9426.32912
517.3467 9417.58430
517.5540 9415.86400
517.7614 9663.81158
517.9687 9689.75934
518.1760 9698.50417
518.3833 9867.42063
518.5906 9885.91379
518.7978 10058.27084
519.0051 10010.55317
519.2123 10173.69436
519.4196 10012.84689
519.6268 10184.61003
519.8340 10257.55868
520.0411 10305.19443
520.2483 10549.74238
520.4554 10500.30442
520.6626 10786.95860
520.8697 10721.46456
521.0768 10933.42933
521.2839 10883.37697
521.4909 10892.61331
521.6980 11070.66371
521.9050 11253.01485
522.1121 11148.69132
522.3191 11441.89901
522.5261 11396.61842
522.7331 11462.37870
522.9400 11658.14403
523.1470 11694.96651
523.3539 11788.92731
523.5608 11789.62362
523.7677 11828.30975
523.9746 11950.14341
524.1815 12224.73506
524.3884 12130.26226
524.5952 12157.17257
524.8020 12447.92270
525.0089 12345.54474
525.2157 12502.66490
525.4225 12580.56963
525.6292 12603.46592
525.8360 12714.36343
526.0427 12840.92790
526.2494 12984.47003
526.4562 12959.25953
526.6629 13085.06625
526.8695 13078.88139
527.0762 13342.02489
527.2829 13423.49309
527.4895 13514.58674
527.6961 13646.70120
527.9027 13774.04390
528.1093 13842.95805
528.3159 13878.46983
528.5224 13834.62282
528.7290 14220.82876
528.9355 14078.22870
529.1420 14443.85256
529.3485 14329.47351
529.5550 14544.87886
529.7615 14510.90306
529.9680 14659.17600
530.1744 14663.31289
530.3808 14935.61082
530.5872 14869.72766
530.7936 15019.67993
531.0000 15085.29685
531.2064 15270.98618
531.4127 15363.22669
531.6191 15462.38934
531.8254 15573.06157
532.0317 15797.27319
532.2380 15729.11679
532.4443 15868.68586
532.6505 15669.07035
532.8568 15966.00533
533.0630 16297.16188
533.2692 16220.40401
533.4754 16383.72952
533.6816 16565.09763
533.8878 16472.11985
534.0939 16834.48744
534.3001 16848.14739
534.5062 16967.19582
534.7123 16862.83133
534.9184 17009.46589
535.1245 17130.99236
535.3306 17173.79490
535.5366 17536.75641
535.7426 17501.38799
535.9487 17578.55545
536.1547 17583.67537
536.3607 17892.09946
536.5666 17773.15344
536.7726 17941.80367
536.9785 18138.22435
537.1845 18298.15023
537.3904 18170.76657
537.5963 18270.78937
537.8022 18474.60322
538.0080 18615.44203
538.2139 18732.19672
538.4197 18868.59144
538.6256 18809.71234
538.8314 18877.74586
539.0372 19045.86362
539.2430 19438.80738
539.4487 19247.07655
539.6545 19585.74914
539.8602 19493.77486
540.0659 19713.03040
540.2716 20107.55110
540.4773 20185.82446
540.6830 20285.54006
540.8887 20425.19105
541.0943 20170.07558
541.2999 20314.94889
541.5056 20369.56822
541.7112 20628.12427
541.9167 20482.73897
542.1223 20520.17584
542.3279 20955.32824
542.5334 21056.49790
542.7389 21245.11582
542.9444 21304.03588
543.1499 21394.08507
543.3554 21343.68456
543.5609 21720.49033
543.7663 21769.21150
543.9718 21616.96551
544.1772 21802.96203
544.3826 21845.25258
544.5880 22471.25519
544.7934 22250.52512
544.9987 22329.26952
545.2041 22735.58652
545.4094 22671.58749
545.6147 22708.77861
545.8200 23001.49478
546.0253 22959.77766
546.2306 23217.14589
546.4358 23084.92903
546.6411 23438.79755
546.8463 23267.71024
547.0515 23535.17496
547.2567 23739.15264
547.4619 23743.51482
547.6670 23881.58887
547.8722 24008.95205
548.0773 24313.83315
548.2824 24317.33518
548.4876 24471.54723
548.6926 24581.35931
548.8977 24713.88337
549.1028 24786.01283
549.3078 25012.12906
549.5129 25005.10453
549.7179 25188.50013
549.9229 25347.01291
550.1279 25223.43847
550.3328 25628.13758
550.5378 25285.10281
550.7427 25607.80125
550.9476 25825.33649
551.1526 25248.30082
551.3575 25866.62354
551.5623 25998.84040
551.7672 25896.46245
551.9720 25952.43343
552.1769 26101.09548
552.3817 26348.28531
552.5865 26173.53214
552.7913 26435.26254
552.9961 26293.15399
553.2008 26488.77597
553.4056 26776.94565
553.6103 26720.23740
553.8150 26955.28277
554.0197 27047.46184
554.2244 26935.13076
554.4291 27023.45965
554.6337 27439.79122
554.8384 27232.16814
555.0430 27431.43550
555.2476 27166.91986
555.4522 27228.78900
555.6568 27568.48557
555.8613 27733.96145
556.0659 27880.47313
556.2704 27564.30772
556.4750 27943.01810
556.6795 28136.16203
556.8839 27812.11193
557.0884 28341.14322
557.2929 28187.72988
557.4973 28012.21896
557.7018 28166.10333
557.9062 28339.30005
558.1106 28396.29502
558.3150 28193.21844
558.5193 28625.44224
558.7237 28708.79457
558.9280 28463.38648
559.1323 28666.70881
559.3367 28529.69970
559.5410 28791.65539
559.7452 28498.16099
559.9495 28869.19148
560.1537 28857.10847
560.3580 28801.32180
560.5622 28990.10356
560.7664 29245.48526
560.9706 29223.32624
561.1748 29384.82906
561.3789 29347.49459
561.5831 29371.53774
561.7872 29288.98412
561.9913 29573.91801
562.1954 29498.45036
562.3995 29677.89338
562.6036 29655.18141
562.8076 29435.31149
563.0117 29713.99907
563.2157 29642.01297
563.4197 29849.49269
563.6237 30057.99638
563.8277 29752.33705
564.0316 29580.36911
564.2356 29989.63519
564.4395 29975.79092
564.6434 30139.58746
564.8473 30358.94539
565.0512 30306.45595
565.2551 30276.02314
565.4590 30368.91900
565.6628 30570.25481
565.8666 30773.59762
566.0705 30537.26203
566.2743 30582.46070
566.4780 30619.40606
566.6818 30527.18602
566.8856 31065.69941
567.0893 30647.74995
567.2930 30802.86310
567.4967 30549.26313
567.7004 30755.51406
567.9041 30876.93813
568.1078 30904.05323
568.3114 31106.94550
568.5151 31041.77913
568.7187 30740.19525
568.9223 30953.85983
569.1259 31088.20658
569.3295 31467.38800
569.5330 31412.64579
569.7366 31415.41055
569.9401 31521.00382
570.1436 31617.29931
570.3471 31684.61604
570.5506 31660.57289
570.7541 31614.22736
570.9575 31541.99550
571.1609 31236.25425
571.3644 31824.16463
571.5678 31791.25378
571.7712 32155.09590
571.9746 32058.90281
572.1779 31850.09192
572.3813 31679.39372
572.5846 31945.28151
572.7879 31871.80039
572.9912 32481.46020
573.1945 32351.29131
573.3978 31973.93259
573.6010 32325.22067
573.8043 32811.94092
574.0075 31960.86655
574.2107 32109.34428
574.4139 32088.55740
574.6171 32240.45524
574.8203 32095.33618
575.0234 32524.91810
575.2266 31966.49846
575.4297 32113.29686
575.6328 32284.48657
575.8359 32639.21524
576.0390 31954.74312
576.2420 32098.61293
576.4451 31810.40228
576.6481 32162.28427
576.8512 32659.87924
577.0542 31959.14625
577.2571 32435.52427
577.4601 32403.71931
577.6631 32288.48011
577.8660 32172.19644
578.0689 31986.58904
578.2719 32191.81598
578.4748 32035.04398
578.6776 31962.13629
578.8805 32122.65608
579.0834 31581.70561
579.2862 32108.81181
579.4890 32449.69621
579.6918 32263.55633
579.8946 31912.24777
580.0974 32354.52710
580.3002 31996.37833
580.5029 31884.23156
580.7057 32320.08027
580.9084 31820.10966
581.1111 32447.79160
581.3138 32189.76802
581.5164 31953.30954
581.7191 31762.47982
581.9217 31927.81233
582.1244 31930.31085
582.3270 31984.02907
582.5296 31889.04428
582.7322 32160.11343
582.9347 32007.43736
583.1373 31766.41192
583.3398 32000.86338
583.5424 31727.70531
583.7449 31642.85796
583.9474 31551.39568
584.1498 31508.87985
584.3523 31956.75013
584.5548 31576.62665
584.7572 31826.68364
584.9596 31959.78112
585.1620 32596.06454
585.3644 31663.39909
585.5668 31750.74495
585.7691 32076.69966
585.9715 31845.72975
586.1738 32136.58227
586.3761 32124.08966
586.5784 32279.36665
586.7807 32191.11967
586.9830 32228.08551
587.1852 32205.70121
587.3875 31897.76863
587.5897 32437.63367
587.7919 32180.57264
587.9941 31841.90004
588.1963 31958.22467
588.3984 32322.10776
588.6006 31808.25192
588.8027 32372.69258
589.0048 32023.24768
589.2069 32141.72267
589.4090 32188.33444
589.6111 32377.89442
589.8131 32334.25221
590.0152 32526.82271
590.2172 32456.22923
590.4192 32756.25665
590.6212 32451.70322
590.8232 32250.53125
591.0252 32630.63425
591.2271 32752.36551
591.4291 32687.34250
591.6310 32534.13396
591.8329 32519.65482
592.0348 32898.11945
592.2367 32868.50582
592.4385 33215.59556
592.6404 33301.32353
592.8422 33387.23582
593.0440 33475.11416
593.2458 33758.34824
593.4476 33888.84481
593.6494 33903.77450
593.8512 34027.26702
594.0529 34401.84050
594.2546 34256.22992
594.4563 34224.75264
594.6580 33970.12869
594.8597 33914.13722
595.0614 33991.79620
595.2630 34307.63394
595.4647 34251.78583
595.6663 33946.88424
595.8679 34350.96896
596.0695 34759.12913
596.2711 34542.86363
596.4727 34666.17183
596.6742 34981.27230
596.8757 35138.57678
597.0773 35000.62560
597.2788 34635.88237
597.4802 34982.80828
597.6817 35455.33611
597.8832 35199.27857
598.0846 35547.71998
598.2860 35432.86989
598.4875 35152.99448
598.6889 35722.35027
598.8902 35772.60743
599.0916 35880.92449
599.2930 35492.87537
599.4943 36035.87381
599.6956 35995.40595
599.8969 35822.57786
600.0982 35467.62392
600.2995 35588.41312
600.5008 36373.99345
600.7020 35729.41576
600.9032 36261.47805
601.1045 36104.35788
601.3057 35794.13158
601.5068 36465.70149
601.7080 36500.49648
601.9092 36187.73069
602.1103 36778.09864
602.3115 36657.45280
602.5126 36856.39249
602.7137 36702.71291
602.9147 36707.40276
603.1158 36924.71272
603.3169 37174.87211
603.5179 37023.34290
603.7189 36889.67198
603.9199 37058.34269
604.1209 37021.68405
604.3219 36982.95696
604.5229 37048.04140
604.7238 37307.80576
604.9247 37309.93565
605.1257 37525.89395
605.3266 37725.55043
605.5275 37307.47808
605.7283 37472.38053
605.9292 37665.07391
606.1300 37062.23383
606.3309 37244.54400
606.5317 37634.41582
606.7325 37761.49228
606.9332 37742.01609
607.1340 37997.09060
607.3348 37916.15488
607.5355 37373.23836
607.7362 38405.31221
607.9369 37685.53312
608.1376 37944.04821
608.3383 37696.30543
608.5390 38541.78885
608.7396 38132.99381
608.9402 38760.20472
609.1409 38730.87780
609.3415 38396.17827
609.5421 38243.87084
609.7426 38566.22112
609.9432 38088.59385
610.1437 37954.49285
610.3443 38819.00190
610.5448 38540.99014
610.7453 38862.99227
610.9457 38689.91843
611.1462 38807.92239
611.3467 38696.32857
611.5471 39030.45467
611.7475 38483.74942
611.9479 39279.85631
612.1483 38723.21840
612.3487 39320.93856
612.5491 39142.84720
612.7494 39804.23871
612.9497 39083.33323
613.1501 39481.78603
613.3504 39315.83912
613.5506 40045.26415
613.7509 39688.89711
613.9512 39475.08917
614.1514 39724.10169
614.3516 40119.62589
614.5519 39915.01334
614.7521 40130.29581
614.9522 39774.76844
615.1524 39713.65705
615.3526 40207.83191
615.5527 40764.44933
615.7528 40384.98120
615.9529 40354.22071
616.1530 40851.63136
616.3531 40794.86167
616.5532 40734.03700
616.7532 40332.30745
616.9532 40659.18374
617.1533 40476.99644
617.3533 40877.02618
617.5532 40457.31546
617.7532 40747.73791
617.9532 39869.22075
618.1531 40926.07503
618.3530 40384.57161
618.5530 40624.55259
618.7528 40803.03307
618.9527 40850.73026
619.1526 40459.24055
619.3524 40466.46988
619.5523 40806.69893
619.7521 40911.61637
619.9519 40938.83387
620.1517 40942.06966
620.3515 41306.54666
620.5512 41546.60956
620.7510 41323.42193
620.9507 41053.00813
621.1504 41083.60478
621.3501 41187.84639
621.5498 41407.53200
621.7495 41493.60813
621.9492 41124.44128
622.1488 40944.69106
622.3484 40948.58220
622.5480 40942.47926
622.7476 41613.43478
622.9472 40892.48834
623.1468 41086.14427
623.3463 42293.91336
623.5459 41961.30275
623.7454 41666.25189
623.9449 41704.73323
624.1444 41675.22200
624.3439 42090.03807
624.5433 41889.00945
624.7428 41618.63662
624.9422 41751.28356
625.1416 41858.59712
625.3410 41824.41652
625.5404 41696.21368
625.7398 41703.79116
625.9391 41956.79722
626.1385 41555.84590
626.3378 41667.58307
626.5371 42377.16329
626.7364 41709.93507
626.9357 42161.16402
627.1350 42076.64435
627.3342 41739.05718
627.5335 41546.24093
627.7327 41673.66554
627.9319 41780.77431
628.1311 42732.05579
628.3303 42019.66986
628.5294 42261.49401
628.7286 42321.86813
628.9277 42648.76490
629.1268 42345.09210
629.3259 42957.98770
629.5250 42920.87851
629.7241 42863.22819
629.9231 42090.36574
630.1222 42986.55687
630.3212 42794.78507
630.5202 42429.42745
630.7192 42970.93087
630.9182 42326.90613
631.1171 42540.55023
631.3161 42373.39502
631.5150 42225.79792
631.7140 42564.90058
631.9129 42735.10726
632.1118 43184.18585
632.3106 43002.81774
632.5095 42771.29487
632.7083 42727.89841
632.9072 42800.82658
633.1060 42923.52039
633.3048 42905.08867
633.5036 42430.98390
633.7023 42772.83085
633.9011 43226.61976
634.0998 43062.16787
634.2986 43302.43557
634.4973 42923.99142
634.6960 43091.00327
634.8947 42923.72519
635.0933 43229.93747
635.2920 42836.60460
635.4906 42520.78733
635.6892 43284.18817
635.8878 43325.14754
636.0864 43281.34149
636.2850 43006.46312
636.4836 43051.00644
636.6821 43057.17083
636.8806 43219.73859
637.0792 43218.57125
637.2777 43157.58274
637.4761 43200.22145
637.6746 42943.54952
637.8731 43323.01765
638.0715 42832.22194
638.2699 43530.39497
638.4683 43221.97088
638.6667 42488.04031
638.8651 43352.20121
639.0635 43536.33408
639.2618 43569.04014
639.4602 43399.73456
639.6585 43347.67520
639.8568 43547.88462
640.0551 43613.41962
640.2534 43447.80039
640.4516 43230.77714
640.6499 43375.50709
640.8481 44156.74573
641.0463 43894.79005
641.2445 44213.96598
641.4427 43985.84274
641.6409 43728.24923
641.8390 43988.23886
642.0372 44335.59484
642.2353 44195.41138
642.4334 43656.11977
642.6315 43885.96330
642.8296 43836.11574
643.0277 43659.04837
643.2257 44331.00739
643.4237 44352.49058
643.6218 44238.80784
643.8198 43958.62523
644.0178 44107.90168
644.2157 44025.55285
644.4137 43913.11937
644.6116 44713.46556
644.8096 44922.52221
